"Fp2-F4"	"F4-C4"	"C4-P4"	"P4-O2"	"Fp1-F3"	"F3-C3"	"C3-P3"	"P3-O1"	"Fp2-F8"	"F8-T4"	"T4-T6"	"T6-O2"	"Fp1-F7"	"F7-T3"	"T3-T5"	"T5-O1"	"Fz-Cz"	"Cz-Pz"	"t"	"seizure"
-11.7118	0.6692	1.5058	14.2214	0.1673	3.5135	3.3462	9.3694	-6.3578	-1.3385	6.0232	6.3578	0.6692	6.3578	3.0116	6.3578	1.6731	-1.6731	4004.6094	0
7.1944	0.1673	2.0077	11.3772	5.354	2.175	4.852	3.0116	12.5483	-0.8366	2.0077	7.0271	4.6847	4.3501	5.8559	0.5019	2.0077	0	4004.625	0
2.8443	0.1673	2.5097	9.2021	1.0039	4.6847	7.1944	2.8443	8.3656	-1.3385	3.8482	3.8482	-3.0116	9.8714	6.1905	2.677	3.1789	0.6692	4004.6406	0
-11.3772	1.1712	2.175	8.0309	0.6692	3.5135	10.7079	30.4506	-7.8636	1.0039	5.0193	1.8404	2.175	4.3501	14.5561	24.2601	4.1828	2.5097	4004.6562	0
5.0193	2.677	3.1789	16.2292	3.6808	5.1866	14.3888	37.8123	10.3733	0.8366	9.8714	6.0232	1.8404	9.8714	13.7195	35.6373	4.6847	6.5251	4004.6719	0
-3.0116	4.852	4.6847	24.4274	-0.5019	8.3656	15.7272	41.4932	2.175	2.0077	12.7156	14.0541	-2.5097	10.206	13.7195	43.6682	5.5213	9.8714	4004.6875	0
1.5058	7.0271	6.1905	27.2717	-3.6808	7.6963	15.2253	33.1276	4.6847	6.5251	11.3772	19.4081	-3.0116	3.8482	11.7118	39.8201	7.0271	10.7079	4004.7031	0
7.8636	8.5329	7.1944	29.7814	5.354	4.852	15.2253	31.6218	11.2098	4.3501	15.2253	22.587	2.5097	6.5251	13.3849	34.6334	9.3694	13.0503	4004.7188	0
1.8404	10.3733	8.8675	28.4429	1.8404	6.8598	12.381	21.9178	6.5251	7.0271	19.0735	16.8984	-0.3346	4.6847	11.8791	26.7698	10.0387	13.3849	4004.7344	0
10.7079	9.8714	7.6963	21.5831	4.3501	6.1905	15.2253	33.2949	10.8752	2.0077	11.2098	25.7659	2.0077	11.3772	13.7195	31.9564	11.2098	15.5599	4004.75	0
3.1789	8.1982	7.0271	23.2562	5.354	7.529	14.8907	40.8239	6.3578	4.0155	11.2098	20.0773	3.6808	10.5406	21.4158	32.9603	8.5329	13.7195	4004.7656	0
-7.6963	5.6886	7.529	28.7775	11.7118	5.0193	12.2137	56.8858	-1.1712	1.3385	14.3888	19.7427	11.7118	15.2253	23.9255	34.968	3.1789	9.2021	4004.7812	0
4.5174	3.5135	5.6886	20.0773	-3.8482	8.7002	14.3888	52.2011	9.3694	3.3462	12.381	8.7002	0	15.8946	22.4197	33.1276	1.5058	12.0464	4004.7969	0
0.6692	6.5251	7.3617	10.3733	1.8404	11.2098	21.7504	53.5396	5.5213	4.852	10.5406	4.0155	2.175	19.5754	29.6141	36.9758	3.8482	20.9139	4004.8125	0
-7.0271	8.8675	8.1982	3.5135	10.3733	16.2292	28.4429	64.4148	0.3346	0.6692	6.1905	6.3578	16.7311	20.5793	35.47	46.6798	5.6886	27.941	4004.8281	0
4.0155	8.3656	8.8675	15.3926	-5.0193	21.7504	27.7736	68.9322	8.5329	-2.175	-2.175	32.4584	3.5135	24.2601	35.8046	49.8587	8.0309	25.0967	4004.8438	0
-3.6808	12.883	11.7118	27.7736	5.5213	22.2524	27.1044	43.3336	-1.3385	-1.1712	3.5135	47.6837	11.5445	21.5831	24.0928	40.9912	16.2292	26.4352	4004.8594	0
1.1712	18.0696	15.2253	37.4777	11.5445	24.5947	26.4352	24.0928	3.8482	0.5019	5.0193	62.5744	13.2176	20.7466	21.9178	30.7852	25.5986	31.7891	4004.875	0
7.8636	21.5831	15.5599	29.2794	-8.1982	29.4468	25.0967	23.9255	8.1982	4.6847	13.5522	47.851	-2.8443	21.2485	21.2485	30.6179	32.6257	32.6257	4004.8906	0
-2.175	26.2678	16.0619	17.5677	10.3733	24.762	17.5677	36.1392	-1.6731	11.7118	24.2601	23.4236	12.883	16.8984	5.8559	53.2049	37.3104	27.7736	4004.9062	0
4.3501	23.5909	13.8868	16.5638	3.8482	20.412	13.3849	41.3259	6.0232	13.8868	26.6025	11.8791	4.3501	17.5677	9.2021	47.851	29.6141	24.0928	4004.9219	0
1.1712	13.8868	8.5329	21.0812	-1.3385	21.5831	13.0503	44.0028	3.3462	10.0387	16.3965	14.8907	-1.8404	23.2562	4.6847	51.1972	16.5638	20.412	4004.9375	0
-11.2098	6.8598	6.1905	14.0541	13.5522	19.7427	3.6808	32.1237	-6.3578	4.852	8.3656	9.0348	15.2253	21.7504	-13.5522	45.6759	7.0271	18.2369	4004.9531	0
-10.3733	7.1944	9.3694	12.0464	10.0387	19.2408	4.3501	19.5754	-1.5058	7.1944	17.233	-4.6847	9.5367	18.5715	-17.4004	42.497	5.5213	20.412	4004.9688	0
4.6847	11.0425	10.3733	4.6847	9.0348	20.7466	8.0309	14.2214	9.0348	11.2098	3.0116	7.529	5.354	-0.6692	-5.1866	52.5357	12.2137	21.5831	4004.9844	0
4.3501	22.0851	10.5406	4.0155	15.5599	36.1392	34.8007	-0.8366	6.0232	8.0309	-5.354	32.291	8.3656	3.3462	23.4236	50.528	30.9526	32.4584	4005	0
1.0039	29.1121	11.8791	-0.6692	1.6731	40.6566	32.9603	8.0309	3.6808	8.8675	-4.852	33.6295	-2.0077	3.1789	15.3926	66.7571	39.3181	32.4584	4005.0156	0
2.175	36.6411	19.7427	0.1673	4.1828	41.3259	31.2872	-12.7156	2.0077	9.2021	8.7002	38.8162	0.3346	5.6886	7.8636	50.1933	45.5086	37.4777	4005.0312	0
-1.0039	38.8162	20.0773	3.6808	-6.0232	40.4893	20.9139	-7.6963	2.3424	11.3772	17.5677	30.2833	-11.3772	12.381	3.0116	43.6682	48.1856	30.2833	4005.0469	0
4.5174	37.3104	17.5677	14.5561	-5.6886	31.9564	19.7427	18.4042	14.5561	14.2214	18.9062	26.2678	-20.412	19.91	12.883	52.0338	41.8278	22.4197	4005.0625	0
1.6731	26.6025	11.2098	11.0425	-10.7079	19.7427	-1.1712	38.1469	17.0657	19.2408	15.5599	-1.3385	-34.6334	21.7504	18.4042	40.4893	25.4313	2.3424	4005.0781	0
-5.5213	18.2369	5.8559	6.5251	-13.3849	7.0271	-13.7195	42.3297	9.2021	21.2485	19.7427	-25.0967	-44.8394	14.0541	38.9835	14.0541	15.5599	-10.7079	4005.0938	0
12.2137	20.9139	3.1789	0.1673	-2.5097	-1.6731	-9.5367	40.322	21.0812	14.3888	12.5483	-11.5445	-50.3607	12.5483	44.8394	19.5754	17.4004	-11.8791	4005.1094	0
15.058	19.0735	-0.5019	-4.6847	-1.3385	-12.5483	-15.8946	31.7891	14.2214	-2.5097	24.5947	-7.3617	-56.5512	-7.8636	32.291	34.1315	16.0619	-16.5638	4005.125	0
8.1982	20.2446	-2.3424	-11.3772	1.8404	-18.4042	-16.8984	13.2176	0.3346	1.3385	37.3104	-24.2601	-47.1817	-21.4158	22.2524	26.1005	9.8714	-20.9139	4005.1406	0
27.1044	24.5947	-11.2098	-23.2562	0.5019	-21.5831	-10.3733	-5.6886	16.5638	7.529	37.8123	-44.6721	-49.1895	-9.0348	10.0387	11.0425	4.1828	-19.5754	4005.1562	0
19.5754	28.9448	-20.0773	-36.1392	-2.8443	-14.0541	-3.1789	-16.7311	5.5213	7.529	36.3065	-57.0531	-48.6875	2.3424	16.0619	-6.5251	2.0077	-19.0735	4005.1719	0
11.2098	20.2446	-29.9487	-34.4661	-12.7156	-14.5561	3.8482	-15.058	-5.5213	6.8598	24.5947	-58.8935	-47.0144	1.5058	20.412	-13.3849	-7.6963	-20.0773	4005.1875	0
22.4197	-9.8714	-25.264	-26.1005	-25.0967	-13.0503	9.5367	-14.7234	3.6808	-11.0425	1.1712	-32.6257	-52.8703	4.0155	23.0889	-17.5677	-23.5909	-21.5831	4005.2031	0
6.8598	-34.2988	-10.5406	-4.6847	-32.291	-5.354	17.9023	-2.175	-11.3772	-16.3965	0.6692	-15.5599	-45.174	6.5251	25.0967	-8.3656	-31.4545	-20.2446	4005.2188	0
-6.0232	-58.3916	-3.8482	22.587	-40.8239	-9.3694	14.3888	8.7002	-23.2562	-24.9294	10.8752	-8.3656	-41.8278	-6.8598	20.2446	1.3385	-35.47	-22.9216	4005.2344	0
2.5097	-78.9709	-16.0619	41.4932	-43.1663	-20.5793	13.0503	4.852	-31.1199	-40.322	15.8946	4.5174	-44.0028	-13.0503	16.3965	-5.1866	-39.8201	-27.2717	4005.25	0
-7.6963	-77.2977	-12.381	35.3026	-33.9642	-21.9178	15.5599	7.529	-55.7146	-43.5009	22.4197	14.7234	-32.1237	-14.0541	21.4158	-8.0309	-35.8046	-25.264	4005.2656	0
-2.677	-55.0454	-1.3385	23.2562	-49.8587	-10.3733	23.5909	2.3424	-65.084	-17.5677	38.4816	8.3656	-38.1469	-13.7195	27.941	-10.3733	-18.5715	-17.233	4005.2812	0
3.0116	-38.4816	8.0309	3.5135	-50.1933	-6.5251	26.7698	-2.175	-88.8422	0.1673	54.5434	10.206	-41.9951	-13.8868	27.941	-4.1828	-6.8598	-12.381	4005.2969	0
3.0116	-30.6179	7.1944	-23.7582	-40.322	-3.5135	21.4158	-5.8559	-109.4215	0.5019	58.057	6.6924	-38.4816	-13.3849	24.762	-1.1712	-3.6808	-15.8946	4005.3125	0
7.6963	-22.587	5.5213	-32.1237	-49.6914	-2.3424	14.5561	-7.529	-97.2078	-6.1905	69.7687	-7.8636	-48.3529	-15.058	22.4197	-4.0155	0	-17.5677	4005.3281	0
-7.3617	-10.3733	5.1866	-28.4429	-39.1508	-6.0232	10.7079	-8.3656	-91.0173	12.7156	56.0492	-18.7388	-39.9874	-17.233	21.2485	-6.8598	-2.677	-21.9178	4005.3438	0
25.7659	-29.6141	3.1789	-36.8084	-49.1895	-7.529	10.8752	-9.2021	-65.7533	24.4274	35.6373	-31.7891	-49.6914	-22.9216	22.2524	-4.6847	-4.6847	-22.4197	4005.3594	0
-6.1905	-8.3656	6.8598	-40.8239	-47.3491	-11.2098	9.704	-12.2137	-71.7765	34.6334	29.2794	-40.6566	-47.6837	-27.439	20.0773	-6.0232	-4.1828	-19.0735	4005.375	0
-16.3965	5.0193	9.704	-46.6798	-48.0183	-20.0773	6.0232	-8.1982	-65.7533	38.9835	30.9526	-52.5357	-49.5241	-31.9564	20.2446	-9.0348	-10.5406	-20.2446	4005.3906	0
-37.1431	12.381	9.8714	-41.1585	-46.0106	-23.9255	3.8482	-3.5135	-64.0802	29.1121	27.2717	-48.3529	-49.1895	-30.116	16.8984	-7.1944	-17.5677	-23.5909	4005.4062	0
-67.9283	24.2601	10.3733	-24.0928	-41.3259	-30.6179	1.3385	-3.5135	-69.4341	22.0851	24.0928	-34.1315	-48.8549	-29.6141	13.7195	-9.3694	-24.0928	-23.4236	4005.4219	0
-68.9322	30.4506	12.2137	-5.5213	-42.1624	-34.4661	-0.1673	2.677	-52.5357	18.9062	24.0928	-22.2524	-48.3529	-32.793	11.0425	-4.0155	-24.762	-21.2485	4005.4375	0
-86.1652	37.4777	12.5483	11.3772	-20.9139	-43.6682	-2.5097	6.0232	-52.2011	13.0503	11.7118	2.677	-36.6411	-29.9487	8.5329	-3.0116	-28.9448	-17.4004	4005.4531	0
-101.0559	40.9912	11.2098	11.0425	-20.412	-49.8587	-5.5213	12.7156	-56.2165	7.1944	9.8714	1.3385	-31.7891	-38.4816	4.6847	2.5097	-30.9526	-17.4004	4005.4688	0
-101.8925	37.8123	13.5522	14.8907	-20.9139	-55.7146	-9.5367	14.0541	-59.2281	7.529	12.883	3.1789	-49.3568	-29.2794	1.0039	5.5213	-26.4352	-17.5677	4005.4844	0
-104.9041	31.6218	15.5599	17.233	-0.5019	-66.2552	-14.8907	19.7427	-62.909	5.8559	18.4042	-1.8404	-33.1276	-37.3104	-4.0155	12.5483	-16.8984	-16.5638	4005.5	0
-102.8963	20.9139	12.883	16.0619	-7.6963	-53.0376	-17.735	25.9332	-72.2784	-6.0232	17.9023	7.3617	-18.7388	-37.3104	-3.6808	7.1944	3.0116	-17.9023	4005.5156	0
-84.9941	12.5483	9.2021	14.3888	-30.6179	-57.3877	-21.9178	13.8868	-63.0763	-5.8559	11.7118	8.3656	-48.0183	-37.9796	-10.3733	0.3346	22.2524	-18.4042	4005.5312	0
-73.9515	4.1828	8.0309	17.5677	-42.497	-43.1663	-20.7466	17.735	-57.8897	-10.5406	12.5483	11.7118	-36.4738	-46.1779	-11.2098	5.1866	34.8007	-17.4004	4005.5469	0
-65.084	-3.1789	7.0271	26.2678	-52.3684	-34.2988	-18.5715	33.6295	-51.1972	-16.8984	14.8907	18.2369	-34.6334	-47.851	-11.0425	21.9178	40.1547	-15.3926	4005.5625	0
-31.2872	-16.2292	5.0193	26.1005	-63.9129	-33.1276	-15.058	38.8162	-21.7504	-26.7698	9.8714	22.2524	-46.5125	-43.8355	-9.8714	26.9371	50.6953	-11.0425	4005.5781	0
0.1673	-28.6102	0.8366	13.3849	-35.3026	-25.5986	-14.5561	35.9719	11.8791	-38.4816	5.6886	6.6924	-8.7002	-45.174	-9.5367	23.9255	64.2475	-14.3888	4005.5938	0
-21.9178	-1.8404	-1.5058	-2.677	-17.9023	-3.0116	-0.1673	-0.3346	-21.5831	-5.8559	-3.1789	2.677	-16.3965	-8.3656	2.175	1.1712	-3.3462	0.3346	289.6562	0
-27.1044	-1.3385	-1.0039	-1.8404	-18.4042	-2.8443	0.1673	-0.8366	-27.2717	-4.3501	-2.3424	2.677	-16.0619	-9.3694	2.3424	1.1712	-4.1828	1.0039	289.6719	0
-23.2562	-1.8404	-1.6731	-2.5097	-17.735	-2.677	0.5019	-0.3346	-23.9255	-4.5174	-2.8443	2.0077	-14.2214	-9.2021	2.175	1.0039	-5.0193	0.1673	289.6875	0
-23.7582	-2.8443	-1.3385	-3.1789	-18.7388	-4.0155	-0.5019	-1.5058	-22.9216	-6.0232	-3.6808	1.5058	-16.7311	-10.7079	2.0077	0.6692	-5.8559	1.1712	289.7031	0
-23.4236	-3.1789	-2.0077	-3.0116	-16.8984	-2.8443	-1.1712	-0.6692	-21.4158	-5.8559	-3.3462	-1.0039	-12.7156	-12.0464	1.5058	1.6731	-6.5251	1.1712	289.7188	0
-25.5986	-4.3501	-2.0077	-4.5174	-19.4081	-4.0155	-0.6692	-1.8404	-24.5947	-7.3617	-4.6847	0.1673	-15.058	-11.3772	1.5058	-1.0039	-7.0271	0.1673	289.7344	0
-25.9332	-2.175	-1.5058	0	-18.5715	-2.3424	0.1673	-0.1673	-24.5947	-4.852	-2.3424	2.175	-12.883	-11.0425	1.3385	1.6731	-4.852	0.8366	289.75	0
-23.4236	-1.6731	0	3.0116	-20.0773	-2.0077	-0.6692	0.5019	-19.91	-5.5213	1.0039	2.3424	-14.5561	-11.7118	2.175	1.8404	-5.5213	1.8404	289.7656	0
-26.9371	-2.0077	-0.1673	4.5174	-21.0812	-1.6731	-0.5019	1.5058	-23.0889	-4.852	0.3346	3.0116	-14.3888	-11.7118	0.3346	4.0155	-5.1866	2.175	289.7812	0
-26.9371	-3.0116	0.1673	5.1866	-18.4042	-3.1789	0.5019	1.0039	-22.7543	-5.8559	0.1673	3.8482	-14.0541	-9.5367	1.0039	2.5097	-5.6886	2.0077	289.7969	0
-26.2678	-4.5174	-0.8366	5.354	-18.9062	-2.8443	-1.1712	2.0077	-22.2524	-6.8598	0.1673	2.677	-12.883	-11.3772	1.3385	2.0077	-6.5251	0.8366	289.8125	0
-27.941	-5.6886	-1.1712	2.8443	-21.2485	-2.3424	-1.3385	1.3385	-24.4274	-6.5251	-2.8443	1.8404	-16.0619	-9.8714	0.5019	1.8404	-5.354	-0.1673	289.8281	0
-27.439	-5.5213	-1.5058	4.0155	-19.0735	-2.8443	-1.6731	2.3424	-23.5909	-7.6963	-2.175	3.0116	-12.5483	-11.3772	0.6692	2.0077	-5.5213	0.5019	289.8438	0
-30.116	-5.6886	-1.0039	5.1866	-18.5715	-3.3462	-1.3385	2.3424	-25.5986	-7.6963	0.8366	0.8366	-12.883	-10.8752	1.1712	1.6731	-5.0193	0.3346	289.8594	0
-28.6102	-5.0193	-2.175	-0.6692	-18.7388	-2.5097	-1.5058	0.5019	-26.1005	-8.1982	-3.1789	1.0039	-14.0541	-10.5406	1.0039	1.3385	-4.0155	-0.3346	289.875	0
-26.7698	-4.0155	-1.0039	-0.1673	-16.3965	-3.0116	0.3346	-1.1712	-24.0928	-7.3617	-0.5019	0	-11.7118	-11.2098	-0.6692	3.3462	-2.677	1.3385	289.8906	0
-23.5909	-3.0116	-0.1673	-3.0116	-19.4081	-1.6731	0.3346	-2.0077	-21.9178	-5.8559	2.677	-4.6847	-13.8868	-11.8791	0.8366	2.175	-1.5058	1.3385	289.9062	0
-24.5947	-2.677	0.5019	-2.175	-17.5677	-2.3424	-2.0077	0	-21.7504	-6.3578	4.5174	-5.354	-12.381	-11.5445	1.3385	0.6692	-2.175	0.3346	289.9219	0
-25.7659	-1.5058	1.0039	2.5097	-18.4042	-1.5058	-0.8366	1.5058	-23.7582	-5.6886	8.7002	-3.0116	-12.381	-10.7079	1.8404	2.0077	-1.6731	0.8366	289.9375	0
-27.2717	-0.3346	2.8443	5.8559	-16.2292	-1.1712	-0.3346	3.5135	-25.4313	-6.0232	10.206	2.3424	-11.5445	-8.3656	2.3424	3.3462	-1.3385	2.0077	289.9531	0
-25.7659	0.3346	3.8482	13.3849	-17.233	-0.6692	1.1712	5.8559	-25.0967	-5.8559	11.5445	11.2098	-9.8714	-10.0387	4.1828	4.852	-2.0077	4.5174	289.9688	0
-25.0967	2.3424	6.3578	15.5599	-15.058	0.3346	1.8404	6.5251	-25.5986	-4.852	13.5522	16.0619	-9.3694	-8.7002	4.6847	7.0271	0.5019	4.5174	289.9844	0
-23.4236	2.677	6.1905	11.3772	-14.3888	0.5019	1.3385	5.1866	-22.9216	-4.0155	9.8714	13.8868	-11.0425	-9.704	4.1828	9.2021	1.0039	4.3501	290	0
-24.9294	1.6731	4.3501	4.0155	-15.058	-0.5019	1.6731	4.3501	-29.1121	-6.3578	11.7118	8.8675	-8.5329	-6.8598	4.0155	1.8404	1.1712	5.1866	290.0156	0
-23.4236	3.3462	4.6847	-3.5135	-14.3888	0.8366	3.0116	3.3462	-26.1005	-5.6886	12.0464	0.8366	-8.5329	-8.7002	4.0155	6.0232	2.8443	6.8598	290.0312	0
-23.5909	5.6886	6.3578	-7.3617	-13.7195	1.5058	4.3501	1.6731	-26.7698	-4.5174	8.3656	4.0155	-9.5367	-7.8636	6.3578	4.852	4.1828	9.8714	290.0469	0
-20.7466	7.3617	6.6924	0.3346	-13.0503	2.175	4.852	2.0077	-23.7582	-0.5019	18.5715	-0.6692	-9.8714	-7.6963	5.354	8.1982	5.1866	12.0464	290.0625	0
-23.2562	5.0193	5.354	6.5251	-14.3888	1.3385	4.5174	2.8443	-23.4236	0.1673	28.7775	-11.8791	-10.8752	-8.1982	6.6924	6.6924	3.8482	11.5445	290.0781	0
-24.2601	3.3462	4.1828	15.8946	-16.0619	-0.8366	3.0116	5.0193	-22.2524	1.0039	20.9139	-0.5019	-11.2098	-8.7002	4.1828	6.8598	0.1673	8.1982	290.0938	0
-22.7543	2.677	5.5213	24.4274	-16.0619	0.1673	2.8443	7.1944	-21.2485	-3.8482	-1.3385	36.3065	-9.0348	-10.8752	3.3462	10.7079	-1.0039	9.5367	290.1094	0
-25.264	3.0116	6.1905	29.9487	-15.058	3.0116	5.0193	8.0309	-23.7582	-8.5329	-18.5715	64.7494	-9.704	-6.1905	6.0232	10.8752	3.5135	13.8868	290.125	0
-26.4352	6.0232	9.0348	30.4506	-16.0619	3.8482	6.1905	8.0309	-24.762	-8.1982	-19.0735	71.1072	-10.3733	-6.3578	5.8559	12.883	5.5213	15.7272	290.1406	0
-22.7543	9.2021	13.5522	30.116	-15.3926	4.852	8.7002	6.0232	-23.2562	-3.5135	-10.3733	67.2591	-10.0387	-7.0271	7.529	13.7195	7.3617	19.2408	290.1562	0
-21.4158	16.2292	17.9023	29.4468	-13.0503	8.3656	11.0425	5.5213	-23.4236	-0.8366	1.3385	65.084	-8.8675	-3.5135	8.0309	16.2292	13.0503	23.2562	290.1719	0
-23.4236	13.7195	12.7156	26.7698	-14.5561	8.1982	9.2021	5.5213	-22.587	3.0116	4.6847	44.6721	-9.8714	-4.0155	8.1982	14.0541	12.5483	21.2485	290.1875	0
-26.6025	13.2176	6.5251	14.5561	-14.2214	7.3617	9.2021	3.5135	-22.2524	4.852	-6.0232	31.1199	-8.7002	-5.8559	8.5329	11.8791	15.5599	22.2524	290.2031	0
-24.2601	19.7427	8.7002	11.3772	-11.8791	10.7079	12.7156	1.5058	-21.4158	9.5367	0.8366	26.6025	-8.0309	-2.3424	9.0348	14.3888	22.587	25.5986	290.2188	0
-21.2485	23.5909	14.8907	-9.704	-12.7156	10.3733	13.5522	2.3424	-21.0812	12.381	1.6731	14.5561	-10.7079	-1.5058	11.8791	13.8868	24.0928	24.2601	290.2344	0
-20.2446	27.439	17.5677	-24.0928	-12.0464	8.8675	12.5483	3.8482	-18.5715	15.8946	10.7079	-7.3617	-6.3578	-3.6808	10.7079	12.5483	22.9216	17.233	290.25	0
-20.9139	26.9371	11.5445	-40.4893	-13.3849	7.1944	9.3694	4.852	-20.0773	12.5483	1.0039	-16.3965	-9.2021	-4.0155	9.3694	11.8791	23.2562	10.7079	290.2656	0
-19.7427	23.9255	1.5058	-38.6489	-16.2292	5.0193	7.3617	3.3462	-15.8946	12.883	-13.5522	-16.3965	-12.5483	-6.1905	8.5329	9.704	20.5793	5.8559	290.2812	0
-15.8946	20.9139	-5.0193	-29.4468	-15.2253	2.175	5.1866	4.852	-10.5406	16.0619	-10.7079	-24.2601	-11.5445	-7.0271	7.6963	7.8636	13.0503	-1.1712	290.2969	0
-19.4081	18.4042	0.8366	-24.9294	-18.0696	0.5019	4.852	7.8636	-11.8791	27.2717	-7.0271	-33.4622	-13.2176	-5.8559	7.529	6.6924	7.0271	0.8366	290.3125	0
-13.2176	13.8868	2.677	-29.7814	-14.7234	-2.0077	4.0155	6.0232	-8.0309	19.91	-11.7118	-26.6025	-10.7079	-7.529	6.3578	5.1866	2.0077	-2.677	290.3281	0
-12.5483	16.0619	-7.0271	-37.9796	-15.8946	-1.8404	3.1789	3.8482	-14.0541	4.852	-10.3733	-21.9178	-13.0503	-8.8675	6.8598	4.3501	3.1789	-8.0309	290.3438	0
-3.0116	13.3849	-17.9023	-26.6025	-16.3965	-1.8404	4.0155	6.5251	-12.0464	0.1673	11.2098	-33.4622	-15.3926	-7.3617	8.8675	6.1905	-0.3346	-5.8559	290.3594	0
-4.6847	12.5483	-26.4352	-20.0773	-18.5715	-5.354	1.5058	5.5213	-10.3733	-1.1712	2.8443	-29.9487	-14.8907	-11.5445	6.8598	2.677	-6.3578	-5.6886	290.375	0
-2.677	27.2717	-33.4622	-29.1121	-16.0619	-1.5058	4.6847	-0.5019	-14.2214	-5.354	-18.9062	0.5019	-13.7195	-8.8675	6.3578	2.8443	1.8404	-3.0116	290.3906	0
4.0155	27.6063	-38.1469	-20.2446	-12.381	0	5.0193	-2.0077	-17.5677	-18.9062	-5.1866	14.8907	-12.883	-8.3656	6.8598	5.0193	4.0155	-3.6808	290.4062	0
-14.5561	-13.3849	-7.0271	17.0657	-13.0503	0.1673	5.8559	0.3346	-27.2717	-41.4932	28.1083	22.7543	-14.3888	-6.6924	10.0387	4.3501	-2.0077	2.677	290.4219	0
-24.4274	-44.6721	2.175	51.0299	-15.2253	-0.5019	4.1828	2.3424	-30.4506	-46.3452	41.3259	19.5754	-13.8868	-7.6963	6.6924	5.6886	-7.0271	3.8482	290.4375	0
-26.1005	-54.3761	-1.6731	48.3529	-14.3888	-4.0155	2.677	2.175	-31.1199	-40.1547	35.9719	1.5058	-13.2176	-9.0348	8.1982	0.5019	-12.381	-1.5058	290.4531	0
-26.6025	-53.8742	7.529	42.1624	-15.8946	-3.3462	2.0077	3.0116	-43.6682	-63.4109	36.4738	39.8201	-15.8946	-8.5329	8.7002	1.5058	-15.2253	2.175	290.4688	0
-28.1083	-32.1237	12.7156	35.8046	-12.2137	-3.0116	2.8443	-0.1673	-55.5473	-62.2397	55.5473	50.528	-13.8868	-8.1982	6.5251	3.0116	-8.7002	4.0155	290.4844	0
-30.2833	-14.3888	16.5638	27.2717	-9.8714	-1.3385	3.1789	-3.3462	-73.9515	-37.9796	72.9477	38.1469	-12.883	-9.704	7.0271	4.1828	-5.8559	5.5213	290.5	0
-22.587	-3.8482	12.5483	4.0155	-8.1982	-0.5019	1.6731	-7.8636	-95.3673	-2.8443	76.1266	12.2137	-13.2176	-8.1982	5.0193	1.5058	-1.0039	1.3385	290.5156	0
-23.9255	13.0503	12.381	-14.2214	-8.3656	0.5019	0.1673	-9.0348	-102.729	20.5793	75.9593	-6.5251	-12.7156	-7.529	4.6847	-1.1712	3.6808	-1.0039	290.5312	0
-25.7659	26.9371	16.3965	4.0155	-5.354	6.0232	1.5058	-8.1982	-108.7522	33.9642	70.9399	25.4313	-8.7002	-5.354	7.3617	0.6692	14.5561	3.3462	290.5469	0
-13.2176	13.3849	15.7272	-22.0851	-12.2137	5.0193	3.1789	-8.0309	-105.0714	32.6257	49.1895	17.0657	-13.2176	-5.1866	6.6924	-0.3346	16.0619	4.3501	290.5625	0
-12.0464	8.3656	15.7272	-39.1508	-16.0619	2.8443	4.852	-6.5251	-101.8925	37.8123	39.1508	-2.175	-13.8868	-6.3578	7.529	-2.175	17.233	2.677	290.5781	0
-13.7195	9.704	6.0232	-57.3877	-17.5677	3.0116	-1.5058	-4.0155	-94.8654	31.9564	31.7891	-24.2601	-16.3965	-4.5174	5.0193	-4.1828	19.4081	-1.0039	290.5938	0
-18.9062	7.529	2.8443	-42.3297	-16.5638	6.3578	-11.7118	-0.5019	-94.3635	27.2717	41.4932	-25.264	-14.8907	-5.8559	2.5097	-4.1828	15.3926	-4.5174	290.6094	0
-29.4468	4.852	1.8404	-19.2408	-15.5599	4.1828	-15.7272	3.6808	-83.4883	18.0696	31.7891	-8.3656	-14.2214	-8.3656	0.8366	-1.6731	9.704	-4.852	290.625	0
-51.6991	23.5909	6.6924	-1.6731	-15.8946	1.6731	-14.2214	5.5213	-76.6285	14.7234	26.1005	12.7156	-16.2292	-7.8636	-0.1673	1.3385	12.0464	-2.8443	290.6406	0
6.6924	-3.1789	-2.3424	-0.1673	13.2176	2.8443	-3.0116	-7.1944	-3.8482	-6.8598	3.5135	8.1982	6.3578	5.354	-3.0116	-2.8443	8.3656	-1.6731	2616.1562	0
15.2253	-2.175	-3.0116	0	17.735	2.5097	-3.1789	-6.8598	6.1905	-8.0309	3.5135	8.3656	8.3656	6.5251	-1.6731	-3.0116	10.0387	-2.3424	2616.1719	0
12.7156	-2.8443	-2.5097	0.5019	18.0696	1.8404	-3.1789	-6.6924	1.1712	-6.1905	3.6808	9.2021	6.6924	8.5329	-3.1789	-2.0077	10.0387	-2.677	2616.1875	0
12.883	-2.175	-2.3424	-0.1673	17.5677	2.3424	-2.677	-7.529	3.5135	-8.1982	4.3501	8.5329	6.1905	8.5329	-1.5058	-3.5135	10.8752	-3.0116	2616.2031	0
9.3694	-2.0077	-2.5097	-0.6692	13.8868	2.8443	-3.1789	-7.1944	0.3346	-8.1982	3.8482	8.1982	4.1828	7.529	-3.5135	-1.8404	11.2098	-4.0155	2616.2188	0
11.5445	-2.677	-1.8404	-0.6692	14.8907	2.8443	-2.677	-7.529	0.8366	-6.1905	3.5135	8.1982	4.852	7.1944	-2.8443	-1.6731	12.883	-4.5174	2616.2344	0
6.3578	-2.175	-1.8404	-0.3346	15.8946	3.0116	-1.8404	-7.0271	-3.5135	-6.8598	4.0155	8.3656	5.0193	7.3617	-2.3424	0	12.0464	-4.1828	2616.25	0
3.3462	-1.5058	-3.0116	-0.5019	18.2369	2.0077	-2.8443	-8.1982	-3.8482	-8.7002	3.5135	7.3617	6.8598	7.8636	-4.0155	-1.5058	10.0387	-4.5174	2616.2656	0
17.4004	-1.8404	-2.3424	-0.5019	15.058	2.5097	-2.0077	-8.5329	7.6963	-7.1944	4.3501	7.8636	5.1866	6.0232	-2.3424	-1.8404	9.8714	-3.1789	2616.2812	0
6.6924	-3.0116	-2.0077	0.5019	15.7272	3.6808	-2.0077	-6.5251	-3.6808	-7.1944	3.8482	9.2021	5.6886	8.1982	-2.175	-0.8366	10.3733	-3.0116	2616.2969	0
6.6924	-2.0077	-2.175	1.0039	15.2253	4.1828	-1.6731	-6.8598	-3.5135	-7.1944	5.0193	9.2021	4.1828	10.0387	-1.8404	-1.5058	9.8714	-2.0077	2616.3125	0
11.8791	-2.0077	-1.8404	0.3346	16.0619	3.1789	-1.6731	-7.3617	1.1712	-6.1905	4.0155	9.3694	4.852	9.704	-0.5019	-3.8482	9.704	-2.175	2616.3281	0
4.5174	-1.1712	-1.8404	2.0077	19.2408	3.0116	-1.0039	-6.6924	-5.5213	-6.3578	4.5174	10.8752	6.6924	10.3733	-0.3346	-2.175	10.0387	-1.6731	2616.3438	0
11.0425	-1.1712	-1.6731	2.677	17.9023	3.3462	-1.0039	-5.6886	2.677	-4.852	5.0193	8.0309	3.0116	9.5367	1.6731	0.3346	9.0348	-1.6731	2616.3594	0
5.8559	-2.3424	-1.8404	1.1712	16.3965	3.0116	-1.6731	-5.354	-6.8598	-7.8636	4.1828	13.3849	7.3617	11.3772	-2.175	-4.1828	8.5329	-2.0077	2616.375	0
3.3462	-2.175	-1.6731	2.5097	13.5522	3.0116	-0.6692	-5.8559	-6.3578	-6.5251	4.5174	10.3733	1.6731	10.3733	-1.1712	-0.8366	8.7002	-1.5058	2616.3906	0
15.058	-1.5058	-2.0077	2.8443	14.8907	2.677	-1.0039	-5.354	5.6886	-6.1905	4.852	10.0387	4.1828	8.5329	0	-1.5058	7.8636	-1.5058	2616.4062	0
5.1866	-1.3385	-1.6731	3.0116	17.233	2.8443	-1.6731	-6.1905	-4.5174	-5.1866	4.5174	10.3733	5.354	9.2021	-1.0039	-1.3385	5.6886	-0.3346	2616.4219	0
11.3772	-2.0077	-1.3385	3.1789	15.5599	2.3424	-1.3385	-5.8559	2.5097	-6.1905	3.6808	11.2098	4.1828	8.8675	-1.1712	-1.1712	6.6924	-0.5019	2616.4375	0
14.5561	-1.8404	-1.5058	3.3462	16.8984	3.3462	-1.1712	-5.1866	6.1905	-6.0232	3.1789	11.2098	7.3617	7.6963	0.8366	-2.0077	5.1866	0.1673	2616.4531	0
11.2098	-1.5058	-1.1712	3.6808	18.0696	3.1789	-2.3424	-4.1828	2.5097	-4.6847	2.677	11.7118	5.8559	10.0387	-0.5019	-0.6692	5.1866	0.1673	2616.4688	0
1.6731	-1.3385	-1.1712	3.0116	15.7272	3.3462	-2.5097	-5.354	-4.852	-7.3617	3.3462	11.0425	2.175	11.3772	-1.3385	-1.0039	4.852	0.3346	2616.4844	0
10.0387	-1.5058	-1.1712	1.1712	17.0657	3.1789	-1.8404	-5.5213	2.3424	-6.0232	2.5097	9.704	7.529	7.0271	-0.3346	-1.3385	4.1828	0.6692	2616.5	0
8.7002	-2.0077	-1.6731	1.5058	20.0773	3.6808	-1.8404	-5.5213	0.3346	-6.8598	3.0116	10.0387	7.529	11.0425	-1.1712	-1.0039	6.3578	0.1673	2616.5156	0
6.1905	-0.8366	-1.6731	2.175	19.7427	3.5135	-2.175	-5.0193	-1.8404	-6.6924	3.6808	10.7079	8.1982	10.0387	-1.6731	-0.5019	6.6924	0	2616.5312	0
12.883	-1.5058	-1.8404	1.6731	19.7427	3.1789	-2.3424	-5.6886	4.5174	-6.8598	3.5135	10.0387	5.8559	11.3772	-1.1712	-1.1712	7.3617	-0.8366	2616.5469	0
6.8598	-1.1712	-1.5058	1.5058	16.8984	3.6808	-2.175	-6.0232	-1.6731	-6.8598	3.3462	10.8752	3.8482	11.0425	-1.5058	-1.0039	8.3656	-1.8404	2616.5625	0
17.0657	-0.5019	-2.0077	2.0077	19.91	3.6808	-1.5058	-5.6886	9.2021	-7.529	3.0116	11.8791	7.6963	10.7079	-1.6731	-0.3346	10.0387	-2.5097	2616.5781	0
13.8868	-1.0039	-1.6731	1.3385	18.7388	4.852	-1.6731	-4.852	5.5213	-7.1944	3.1789	11.0425	5.1866	11.8791	-0.1673	0.1673	10.3733	-2.8443	2616.5938	0
8.0309	-0.3346	-2.0077	1.0039	16.2292	4.3501	-1.6731	-6.0232	0	-7.0271	3.3462	10.3733	2.3424	11.5445	-0.5019	-0.5019	10.7079	-3.0116	2616.6094	0
12.0464	-0.5019	-2.3424	0.6692	19.5754	4.1828	-2.3424	-6.5251	4.1828	-7.6963	3.6808	9.704	5.1866	12.0464	-1.8404	-0.5019	10.3733	-3.3462	2616.625	0
9.0348	-0.5019	-2.175	0	17.0657	3.5135	-1.6731	-7.0271	2.0077	-6.3578	2.3424	8.3656	2.3424	10.8752	-0.3346	-1.0039	10.206	-4.0155	2616.6406	0
7.6963	-0.8366	-2.3424	0.6692	16.2292	3.6808	-1.5058	-7.1944	1.0039	-7.6963	2.5097	9.3694	3.6808	9.3694	-1.6731	-0.1673	10.0387	-3.3462	2616.6562	0
11.2098	-0.8366	-2.3424	1.5058	18.5715	5.0193	-1.1712	-6.8598	3.1789	-5.6886	2.8443	9.2021	4.1828	13.2176	-1.8404	0	9.8714	-2.677	2616.6719	0
11.2098	-0.1673	-2.0077	1.0039	18.2369	3.0116	-0.6692	-6.6924	3.1789	-4.6847	2.175	9.3694	2.8443	13.0503	-0.5019	-1.5058	9.704	-1.8404	2616.6875	0
10.0387	-0.1673	-2.5097	1.3385	17.5677	4.3501	-1.1712	-5.354	2.8443	-6.8598	3.6808	9.0348	2.677	12.0464	1.8404	-1.1712	8.7002	-1.1712	2616.7031	0
9.0348	-1.3385	-1.5058	0.8366	19.91	4.3501	-1.3385	-5.5213	-0.1673	-6.1905	4.5174	8.8675	3.1789	14.2214	0.8366	-0.8366	7.8636	-0.8366	2616.7188	0
14.8907	-0.8366	-1.3385	3.0116	20.9139	5.1866	0.1673	-4.852	5.354	-3.8482	4.1828	10.0387	5.8559	12.7156	3.3462	-0.5019	8.1982	-0.6692	2616.7344	0
11.5445	-1.1712	-2.0077	0.6692	16.7311	3.5135	-1.3385	-6.1905	3.0116	-6.1905	2.8443	9.3694	4.3501	10.3733	-1.1712	-0.8366	6.3578	-1.3385	2616.75	0
9.8714	-1.6731	-1.3385	0.3346	14.5561	3.8482	-1.0039	-6.1905	1.3385	-7.0271	3.6808	9.2021	-0.1673	13.7195	-0.5019	-1.8404	6.8598	-0.8366	2616.7656	0
8.8675	-1.0039	-1.5058	1.5058	16.2292	4.0155	-0.6692	-6.5251	1.3385	-6.1905	3.1789	9.5367	4.1828	10.206	-0.1673	-1.1712	6.5251	-0.5019	2616.7812	0
10.0387	-0.8366	-1.0039	1.6731	19.2408	3.8482	-1.0039	-4.6847	3.0116	-6.5251	4.1828	9.2021	2.5097	14.3888	-0.1673	0.6692	6.5251	-0.6692	2616.7969	0
5.1866	-1.0039	-1.6731	2.0077	18.5715	4.5174	-0.8366	-5.8559	-3.3462	-4.5174	2.677	9.704	4.0155	12.7156	0.8366	-1.1712	5.8559	-0.5019	2616.8125	0
-1.1712	-1.0039	-1.5058	3.5135	15.058	4.5174	-1.5058	-4.6847	-9.0348	-4.5174	3.5135	9.8714	3.3462	10.3733	0.6692	-1.0039	6.1905	0.8366	2616.8281	0
12.7156	-1.3385	-1.3385	3.6808	18.2369	4.3501	-1.3385	-5.354	6.5251	-7.1944	3.6808	10.7079	5.0193	11.8791	-0.5019	-0.5019	5.0193	0.1673	2616.8438	0
11.8791	-1.0039	-1.8404	3.3462	14.3888	4.3501	-1.8404	-5.1866	4.0155	-5.354	3.3462	10.3733	2.175	10.5406	-0.3346	-0.6692	5.354	0	2616.8594	0
-0.1673	-0.6692	-1.3385	3.3462	14.5561	6.0232	-2.175	-4.6847	-7.6963	-4.6847	2.677	10.8752	0.8366	14.5561	-1.1712	-0.5019	6.6924	-0.5019	2616.875	0
6.3578	-1.1712	-1.5058	3.6808	18.4042	5.0193	-1.5058	-4.852	0.8366	-6.8598	2.3424	11.0425	5.354	12.0464	0.3346	-0.6692	7.0271	-0.1673	2616.8906	0
10.5406	-1.3385	-1.1712	3.3462	15.058	5.0193	-2.175	-4.5174	2.3424	-4.6847	3.0116	10.7079	3.1789	10.7079	-0.6692	0.1673	6.8598	-0.5019	2616.9062	0
4.3501	-1.3385	-1.1712	2.8443	17.4004	6.0232	-1.5058	-4.852	-3.1789	-5.8559	2.8443	10.8752	4.852	12.381	-1.3385	1.1712	7.3617	-0.3346	2616.9219	0
12.5483	-0.5019	-1.5058	2.677	13.0503	5.8559	-1.6731	-4.3501	5.6886	-6.5251	3.0116	11.0425	-0.3346	12.5483	-0.8366	1.5058	9.3694	-2.0077	2616.9375	0
10.8752	-0.5019	-1.6731	2.677	15.2253	6.5251	-1.8404	-5.354	3.0116	-6.5251	3.5135	11.3772	1.5058	13.2176	-0.8366	0.6692	9.704	-1.8404	2616.9531	0
3.5135	-0.1673	-1.0039	2.677	17.9023	5.354	-1.5058	-4.852	-4.5174	-5.0193	3.5135	11.0425	4.1828	12.381	-0.8366	1.1712	10.7079	-2.175	2616.9688	0
8.3656	0.1673	-1.1712	2.175	15.058	6.0232	-1.5058	-5.0193	1.8404	-6.6924	3.0116	11.3772	5.0193	8.3656	-0.5019	1.6731	10.0387	-2.3424	2616.9844	0
10.8752	-0.1673	-1.6731	2.175	16.0619	6.1905	-1.1712	-5.354	3.0116	-5.8559	3.1789	10.8752	1.1712	13.0503	-0.5019	2.0077	11.5445	-3.3462	2617	0
6.1905	-1.0039	-0.8366	3.0116	15.2253	5.8559	-0.3346	-6.1905	-1.6731	-5.1866	2.3424	11.8791	1.0039	12.0464	0.3346	1.1712	11.8791	-3.5135	2617.0156	0
11.2098	-0.3346	-0.8366	2.175	16.2292	5.354	-0.1673	-5.8559	4.5174	-5.5213	3.0116	10.206	5.6886	9.0348	-0.6692	1.5058	11.0425	-3.0116	2617.0312	0
14.7234	-0.3346	-0.8366	2.175	14.3888	5.6886	0	-6.1905	7.529	-4.852	3.0116	10.0387	0.6692	11.3772	0.1673	1.6731	11.2098	-2.8443	2617.0469	0
6.0232	0.5019	-0.3346	2.8443	16.0619	5.6886	0.3346	-5.8559	-0.3346	-4.852	3.3462	10.8752	3.3462	11.5445	1.3385	0	12.0464	-2.3424	2617.0625	0
11.7118	-0.3346	-0.3346	2.8443	15.058	6.0232	0	-5.6886	4.5174	-4.6847	3.6808	10.3733	0.1673	13.2176	1.5058	0.5019	11.0425	-2.175	2617.0781	0
11.7118	-0.5019	-0.3346	3.0116	14.8907	5.8559	-0.1673	-4.852	3.8482	-4.5174	3.3462	11.2098	2.175	11.3772	1.0039	1.1712	10.5406	-2.0077	2617.0938	0
3.6808	0.5019	-0.1673	3.6808	13.5522	6.0232	0.6692	-4.0155	-4.0155	-4.3501	4.6847	11.3772	0.8366	12.2137	1.1712	2.0077	10.5406	-1.0039	2617.1094	0
13.5522	0.5019	-1.0039	4.1828	14.5561	5.6886	0.5019	-5.8559	7.1944	-1.8404	4.3501	7.529	-0.3346	10.8752	1.0039	3.3462	8.5329	-1.3385	2617.125	0
9.704	0	-1.0039	2.677	14.0541	6.0232	0.3346	-3.6808	1.1712	-7.1944	5.1866	12.2137	2.3424	14.8907	1.0039	-1.5058	10.0387	-0.8366	2617.1406	0
22.0851	-13.0503	-2.5097	9.5367	5.1866	-9.0348	-12.0464	-1.6731	11.3772	7.1944	3.0116	-5.5213	10.7079	-11.3772	-9.8714	-7.0271	-4.1828	-20.9139	1273.2031	0
20.412	-13.5522	-3.5135	9.2021	1.1712	-8.7002	-11.5445	-2.677	9.8714	6.3578	1.8404	-5.5213	8.3656	-12.7156	-10.0387	-7.3617	-4.6847	-21.7504	1273.2188	0
22.9216	-13.7195	-3.1789	8.7002	5.6886	-9.3694	-11.3772	-3.3462	12.5483	6.6924	1.3385	-5.8559	11.0425	-11.7118	-10.3733	-7.3617	-6.5251	-20.9139	1273.2344	0
18.5715	-13.2176	-2.677	8.1982	3.0116	-8.1982	-11.7118	-2.3424	8.8675	7.0271	1.8404	-6.8598	9.0348	-11.2098	-9.8714	-7.1944	-5.8559	-20.412	1273.25	0
22.9216	-13.0503	-2.5097	8.8675	7.529	-8.7002	-11.2098	-2.3424	12.7156	6.1905	2.5097	-5.1866	15.3926	-13.7195	-8.8675	-7.529	-5.1866	-18.9062	1273.2656	0
21.0812	-13.3849	-2.677	8.7002	5.5213	-9.0348	-10.206	-2.175	9.5367	6.8598	4.5174	-7.1944	11.7118	-11.0425	-9.3694	-7.1944	-6.5251	-18.5715	1273.2812	0
17.9023	-13.0503	-2.677	8.5329	-1.8404	-8.5329	-10.8752	-2.677	6.6924	6.8598	0.8366	-3.6808	5.1866	-12.0464	-9.3694	-7.6963	-6.6924	-18.4042	1273.2969	0
23.0889	-12.5483	-3.0116	9.5367	3.3462	-7.8636	-10.7079	-0.8366	10.0387	8.3656	3.1789	-4.5174	10.3733	-11.3772	-7.529	-7.529	-6.6924	-18.0696	1273.3125	0
21.9178	-12.381	-2.5097	8.0309	4.5174	-9.2021	-11.0425	-2.677	11.3772	9.704	2.3424	-8.3656	7.529	-11.7118	-9.2021	-5.0193	-6.1905	-17.735	1273.3281	0
10.8752	-13.8868	-2.677	6.5251	4.3501	-9.5367	-11.8791	-1.8404	-2.5097	5.6886	4.0155	-6.3578	13.2176	-12.5483	-9.8714	-9.704	-7.3617	-17.0657	1273.3438	0
22.0851	-13.8868	-2.677	8.1982	2.3424	-8.3656	-11.8791	-1.3385	9.5367	6.8598	2.175	-4.852	9.5367	-12.883	-8.3656	-7.529	-8.1982	-17.233	1273.3594	0
20.9139	-13.8868	-3.5135	8.3656	0	-10.3733	-10.5406	-2.677	8.1982	7.1944	3.1789	-6.6924	5.354	-11.8791	-9.5367	-7.529	-8.0309	-17.0657	1273.375	0
18.2369	-13.0503	-3.3462	8.0309	5.6886	-11.2098	-9.704	-3.1789	6.1905	7.8636	0.6692	-4.852	13.5522	-15.5599	-8.1982	-8.1982	-9.0348	-15.7272	1273.3906	0
20.2446	-13.0503	-3.1789	7.6963	1.0039	-10.206	-10.5406	-3.0116	8.3656	6.8598	3.0116	-6.5251	6.6924	-11.7118	-9.704	-8.0309	-9.704	-14.0541	1273.4062	0
17.5677	-13.0503	-3.3462	8.1982	0	-10.206	-10.206	-1.8404	6.0232	5.8559	2.677	-5.1866	8.0309	-14.0541	-8.8675	-7.3617	-10.206	-13.2176	1273.4219	0
15.2253	-13.2176	-3.0116	8.3656	1.1712	-10.0387	-9.8714	-2.5097	3.1789	6.5251	4.5174	-6.8598	7.529	-12.0464	-9.704	-7.0271	-8.7002	-14.3888	1273.4375	0
18.9062	-14.0541	-2.8443	8.5329	1.8404	-9.5367	-9.8714	-2.5097	6.6924	6.3578	2.8443	-5.354	8.1982	-11.0425	-9.704	-7.529	-7.6963	-14.5561	1273.4531	0
15.7272	-14.3888	-2.175	7.529	1.6731	-10.3733	-9.3694	-1.6731	4.0155	5.8559	2.3424	-5.5213	10.3733	-14.7234	-9.704	-5.6886	-7.529	-14.0541	1273.4688	0
22.7543	-14.8907	-2.677	7.529	0	-9.2021	-10.0387	-2.175	10.206	6.1905	3.3462	-7.0271	5.5213	-11.0425	-9.8714	-6.0232	-6.8598	-15.3926	1273.4844	0
18.4042	-14.3888	-3.3462	8.3656	2.0077	-9.3694	-10.0387	-2.677	5.354	5.5213	2.0077	-3.8482	8.5329	-12.883	-9.704	-6.0232	-6.6924	-15.8946	1273.5	0
16.7311	-14.0541	-2.677	9.0348	1.8404	-9.0348	-9.0348	-1.6731	4.852	5.1866	2.8443	-3.8482	7.0271	-10.0387	-9.8714	-5.0193	-5.354	-16.2292	1273.5156	0
18.4042	-14.0541	-2.677	10.206	-1.1712	-8.1982	-9.0348	-1.6731	6.1905	5.0193	3.1789	-2.5097	5.5213	-12.0464	-8.7002	-4.852	-4.6847	-16.7311	1273.5312	0
17.0657	-14.0541	-1.6731	9.3694	2.175	-9.0348	-8.1982	-2.3424	5.6886	5.0193	3.8482	-3.8482	10.0387	-13.3849	-9.0348	-5.0193	-3.5135	-16.3965	1273.5469	0
17.4004	-14.2214	-3.1789	9.704	-4.6847	-8.3656	-8.0309	-1.3385	4.852	4.852	2.5097	-2.5097	1.1712	-11.3772	-8.5329	-3.6808	-3.5135	-18.2369	1273.5625	0
20.0773	-14.7234	-1.8404	10.206	1.5058	-8.1982	-8.5329	-1.3385	8.0309	4.6847	2.677	-1.6731	6.1905	-11.7118	-7.1944	-3.8482	-3.0116	-18.0696	1273.5781	0
16.2292	-15.5599	-1.8404	9.3694	1.8404	-8.3656	-8.3656	-2.175	4.3501	4.5174	3.3462	-4.0155	9.2021	-13.5522	-8.1982	-4.5174	-4.1828	-18.4042	1273.5938	0
17.0657	-15.058	-2.0077	9.704	-3.8482	-9.0348	-7.529	-2.0077	6.3578	3.8482	2.3424	-2.8443	0	-10.206	-8.5329	-3.6808	-6.0232	-16.8984	1273.6094	0
18.9062	-15.3926	-2.0077	8.8675	1.0039	-9.3694	-8.3656	-2.3424	6.8598	4.6847	0.5019	-1.6731	6.0232	-12.5483	-7.6963	-4.852	-5.6886	-17.0657	1273.625	0
19.4081	-15.8946	-1.5058	8.0309	-4.3501	-9.0348	-7.8636	-2.175	8.0309	4.1828	1.5058	-3.6808	-1.6731	-8.8675	-7.8636	-5.0193	-7.1944	-15.3926	1273.6406	0
17.735	-15.8946	-1.3385	9.3694	-0.5019	-8.8675	-7.529	-1.1712	6.1905	3.5135	2.5097	-2.3424	4.0155	-10.206	-7.8636	-4.0155	-6.5251	-15.5599	1273.6562	0
14.0541	-16.5638	-1.6731	9.5367	2.0077	-10.0387	-6.6924	-1.3385	2.8443	3.5135	2.677	-3.6808	4.852	-8.8675	-7.6963	-4.3501	-8.3656	-14.8907	1273.6719	0
16.8984	-16.7311	-1.5058	8.8675	0	-9.3694	-7.1944	-1.5058	6.0232	2.8443	2.0077	-3.3462	2.175	-9.0348	-6.1905	-5.0193	-7.8636	-14.0541	1273.6875	0
18.5715	-15.7272	-1.5058	12.5483	-0.1673	-8.1982	-6.3578	0.1673	7.6963	4.3501	3.6808	-1.8404	2.0077	-9.2021	-3.8482	-3.5135	-7.1944	-13.0503	1273.7031	0
12.2137	-16.7311	-2.3424	10.7079	-3.6808	-9.3694	-6.8598	-0.5019	-0.5019	1.0039	5.0193	-1.6731	2.175	-7.8636	-7.6963	-7.0271	-8.3656	-12.883	1273.7188	0
14.0541	-15.7272	-2.8443	10.8752	1.0039	-9.704	-7.6963	-0.3346	3.3462	3.0116	2.0077	-2.0077	2.3424	-6.5251	-7.1944	-5.354	-10.5406	-12.381	1273.7344	0
18.2369	-16.5638	-1.8404	10.8752	-3.6808	-8.3656	-7.8636	-0.5019	8.1982	2.677	1.8404	-2.0077	2.3424	-10.7079	-6.8598	-5.1866	-10.5406	-11.7118	1273.75	0
10.3733	-16.8984	-2.0077	9.5367	-4.852	-10.0387	-7.8636	-1.0039	1.3385	1.0039	1.3385	-2.677	-4.3501	-7.0271	-7.3617	-5.0193	-10.5406	-12.5483	1273.7656	0
15.2253	-16.8984	-2.175	9.8714	2.175	-10.8752	-8.1982	-0.3346	6.0232	1.1712	2.0077	-3.1789	3.1789	-7.8636	-7.0271	-5.5213	-12.381	-10.206	1273.7812	0
13.7195	-18.0696	-2.677	10.8752	-3.6808	-9.2021	-8.1982	-0.3346	4.3501	0.3346	3.3462	-4.1828	-1.1712	-8.5329	-6.1905	-5.5213	-11.3772	-10.7079	1273.7969	0
11.8791	-18.0696	-2.3424	9.704	-1.3385	-11.2098	-8.1982	-0.5019	3.0116	0.5019	0.6692	-3.0116	1.3385	-9.5367	-7.6963	-5.354	-12.0464	-10.5406	1273.8125	0
15.2253	-18.7388	-1.8404	10.206	2.677	-10.206	-8.5329	0.1673	7.0271	-1.0039	-1.8404	0.6692	3.3462	-7.1944	-7.529	-4.5174	-11.5445	-10.7079	1273.8281	0
13.8868	-19.2408	-2.3424	9.8714	-2.3424	-9.5367	-8.5329	-0.8366	5.354	-1.0039	0.8366	-3.0116	-1.8404	-6.6924	-7.6963	-5.0193	-11.0425	-11.5445	1273.8438	0
12.0464	-18.9062	-3.0116	9.704	-9.0348	-9.0348	-8.5329	-1.5058	3.6808	-1.8404	1.5058	-3.5135	-5.354	-10.0387	-7.3617	-5.354	-9.5367	-12.7156	1273.8594	0
14.8907	-19.2408	-3.0116	9.5367	2.677	-9.8714	-8.7002	-1.3385	5.5213	-1.0039	1.3385	-3.6808	4.3501	-8.3656	-7.8636	-5.354	-8.1982	-13.0503	1273.875	0
15.2253	-18.9062	-3.1789	9.704	1.5058	-9.704	-7.6963	-0.6692	5.0193	-1.0039	0.8366	-2.0077	2.3424	-7.1944	-6.6924	-5.0193	-7.6963	-13.0503	1273.8906	0
8.3656	-19.2408	-2.5097	10.7079	-3.8482	-8.3656	-7.6963	0.1673	-1.8404	-1.1712	-0.8366	1.1712	1.0039	-10.7079	-6.8598	-3.1789	-7.0271	-14.0541	1273.9062	0
17.233	-18.9062	-2.677	11.5445	-2.677	-8.1982	-8.0309	0	6.3578	-1.3385	2.0077	0.1673	-3.3462	-6.0232	-5.5213	-4.0155	-6.8598	-14.5561	1273.9219	0
13.0503	-19.2408	-2.0077	9.0348	1.5058	-9.704	-7.529	-1.0039	2.8443	-2.0077	0.6692	-0.6692	2.5097	-7.8636	-7.3617	-4.0155	-7.0271	-15.3926	1273.9375	0
7.8636	-18.4042	-3.0116	10.5406	1.0039	-10.0387	-6.1905	-0.8366	-1.5058	-2.5097	-0.6692	1.6731	1.5058	-7.6963	-6.6924	-3.1789	-5.6886	-16.3965	1273.9531	0
10.8752	-19.2408	-2.3424	9.8714	-4.6847	-9.5367	-7.0271	-1.3385	1.1712	-1.8404	1.8404	-2.0077	-6.8598	-6.8598	-5.6886	-3.1789	-7.0271	-16.2292	1273.9688	0
12.5483	-18.9062	-2.8443	10.206	1.5058	-10.0387	-7.1944	-0.8366	3.8482	-2.3424	1.3385	-1.8404	0.6692	-8.3656	-6.1905	-2.677	-6.0232	-15.7272	1273.9844	0
8.7002	-19.7427	-2.175	9.5367	-9.0348	-8.3656	-7.6963	-1.6731	-0.1673	-3.1789	-0.8366	0.5019	-9.8714	-7.0271	-6.5251	-3.3462	-6.8598	-15.058	1274	0
15.2253	-19.0735	-2.677	9.5367	-0.1673	-9.2021	-7.1944	-0.8366	6.6924	-2.3424	-0.8366	-0.5019	-1.5058	-6.3578	-6.6924	-2.8443	-7.6963	-14.3888	1274.0156	0
8.3656	-18.7388	-2.5097	9.8714	0.6692	-9.0348	-6.5251	-1.5058	0.1673	-2.8443	0.1673	-0.5019	0	-6.6924	-5.0193	-4.6847	-7.529	-14.5561	1274.0312	0
10.7079	-18.5715	-2.5097	9.5367	-2.3424	-7.529	-7.6963	-0.6692	3.1789	-3.6808	1.8404	-2.175	-1.5058	-7.1944	-5.8559	-3.6808	-7.0271	-13.5522	1274.0469	0
12.7156	-19.4081	-2.677	9.704	1.0039	-10.0387	-6.8598	-1.1712	4.3501	-3.8482	1.0039	-1.1712	-1.3385	-2.5097	-2.0077	-11.2098	-7.1944	-12.5483	1274.0625	0
14.2214	-19.4081	-2.0077	10.7079	2.5097	-7.8636	-6.5251	1.0039	4.852	-2.175	3.0116	-2.175	-0.8366	-3.3462	-3.0116	-3.6808	-8.3656	-12.0464	1274.0781	0
4.5174	-19.91	-2.5097	9.2021	-0.6692	-11.8791	-6.3578	-2.175	-3.1789	-2.8443	0	-2.677	-3.6808	-7.8636	-7.0271	-2.5097	-10.206	-13.2176	1274.0938	0
12.2137	-20.7466	-3.1789	9.2021	-1.6731	-10.7079	-7.8636	0	2.5097	-4.3501	-2.3424	1.6731	-1.6731	-6.8598	-6.1905	-5.5213	-10.206	-12.7156	1274.1094	0
11.5445	-19.5754	-3.0116	9.2021	-4.6847	-9.8714	-7.529	0	2.175	-2.677	-0.3346	-1.0039	-4.1828	-8.8675	-5.354	-3.6808	-9.3694	-11.3772	1274.125	0
9.5367	-19.91	-3.0116	9.3694	-2.5097	-9.8714	-7.3617	-0.5019	-0.5019	-2.3424	-1.6731	0.5019	-2.3424	-7.8636	-5.354	-4.6847	-10.3733	-11.0425	1274.1406	0
7.3617	-21.2485	-2.0077	8.5329	-1.6731	-10.206	-6.6924	-2.175	-1.5058	-3.8482	0.3346	-2.3424	-0.8366	-8.1982	-7.0271	-4.6847	-12.2137	-11.0425	1274.1562	0
11.5445	-20.5793	-2.677	9.2021	-2.3424	-10.206	-6.8598	-0.3346	2.3424	-3.3462	-1.1712	-0.3346	-3.0116	-6.3578	-6.1905	-4.1828	-11.8791	-10.0387	1274.1719	0
9.5367	-20.5793	-3.0116	8.7002	-6.8598	-10.0387	-7.0271	0.1673	1.0039	-3.8482	-0.3346	-2.175	-6.1905	-7.0271	-5.6886	-4.852	-12.883	-9.8714	1274.1875	0
0	0	0	0	0	0	0	0	0	0	0	0	0	0	0	0	0	0	2430.875	0
0	0	0	0	0	0	0	0	0	0	0	0	0	0	0	0	0	0	2430.8906	0
0	0	0	0	0	0	0	0	0	0	0	0	0	0	0	0	0	0	2430.9062	0
0	0	0	0	0	0	0	0	0	0	0	0	0	0	0	0	0	0	2430.9219	0
0	0	0	0	0	0	0	0	0	0	0	0	0	0	0	0	0	0	2430.9375	0
0	0	0	0	0	0	0	0	0	0	0	0	0	0	0	0	0	0	2430.9531	0
0	0	0	0	0	0	0	0	0	0	0	0	0	0	0	0	0	0	2430.9688	0
0	0	0	0	0	0	0	0	0	0	0	0	0	0	0	0	0	0	2430.9844	0
0	0	0	0	0	0	0	0	0	0	0	0	0	0	0	0	0	0	2431	0
0	0	0	0	0	0	0	0	0	0	0	0	0	0	0	0	0	0	2431.0156	0
0	0	0	0	0	0	0	0	0	0	0	0	0	0	0	0	0	0	2431.0312	0
0	0	0	0	0	0	0	0	0	0	0	0	0	0	0	0	0	0	2431.0469	0
0	0	0	0	0	0	0	0	0	0	0	0	0	0	0	0	0	0	2431.0625	0
0	0	0	0	0	0	0	0	0	0	0	0	0	0	0	0	0	0	2431.0781	0
0	0	0	0	0	0	0	0	0	0	0	0	0	0	0	0	0	0	2431.0938	0
0	0	0	0	0	0	0	0	0	0	0	0	0	0	0	0	0	0	2431.1094	0
0	0	0	0	0	0	0	0	0	0	0	0	0	0	0	0	0	0	2431.125	0
0	0	0	0	0	0	0	0	0	0	0	0	0	0	0	0	0	0	2431.1406	0
0	0	0	0	0	0	0	0	0	0	0	0	0	0	0	0	0	0	2431.1562	0
0	0	0	0	0	0	0	0	0	0	0	0	0	0	0	0	0	0	2431.1719	0
0	0	0	0	0	0	0	0	0	0	0	0	0	0	0	0	0	0	2431.1875	0
0	0	0	0	0	0	0	0	0	0	0	0	0	0	0	0	0	0	2431.2031	0
0	0	0	0	0	0	0	0	0	0	0	0	0	0	0	0	0	0	2431.2188	0
0	0	0	0	0	0	0	0	0	0	0	0	0	0	0	0	0	0	2431.2344	0
0	0	0	0	0	0	0	0	0	0	0	0	0	0	0	0	0	0	2431.25	0
0	0	0	0	0	0	0	0	0	0	0	0	0	0	0	0	0	0	2431.2656	0
0	0	0	0	0	0	0	0	0	0	0	0	0	0	0	0	0	0	2431.2812	0
0	0	0	0	0	0	0	0	0	0	0	0	0	0	0	0	0	0	2431.2969	0
0	0	0	0	0	0	0	0	0	0	0	0	0	0	0	0	0	0	2431.3125	0
0	0	0	0	0	0	0	0	0	0	0	0	0	0	0	0	0	0	2431.3281	0
0	0	0	0	0	0	0	0	0	0	0	0	0	0	0	0	0	0	2431.3438	0
0	0	0	0	0	0	0	0	0	0	0	0	0	0	0	0	0	0	2431.3594	0
0	0	0	0	0	0	0	0	0	0	0	0	0	0	0	0	0	0	2431.375	0
0	0	0	0	0	0	0	0	0	0	0	0	0	0	0	0	0	0	2431.3906	0
0	0	0	0	0	0	0	0	0	0	0	0	0	0	0	0	0	0	2431.4062	0
0	0	0	0	0	0	0	0	0	0	0	0	0	0	0	0	0	0	2431.4219	0
0	0	0	0	0	0	0	0	0	0	0	0	0	0	0	0	0	0	2431.4375	0
0	0	0	0	0	0	0	0	0	0	0	0	0	0	0	0	0	0	2431.4531	0
0	0	0	0	0	0	0	0	0	0	0	0	0	0	0	0	0	0	2431.4688	0
0	0	0	0	0	0	0	0	0	0	0	0	0	0	0	0	0	0	2431.4844	0
0	0	0	0	0	0	0	0	0	0	0	0	0	0	0	0	0	0	2431.5	0
0	0	0	0	0	0	0	0	0	0	0	0	0	0	0	0	0	0	2431.5156	0
0	0	0	0	0	0	0	0	0	0	0	0	0	0	0	0	0	0	2431.5312	0
0	0	0	0	0	0	0	0	0	0	0	0	0	0	0	0	0	0	2431.5469	0
0	0	0	0	0	0	0	0	0	0	0	0	0	0	0	0	0	0	2431.5625	0
0	0	0	0	0	0	0	0	0	0	0	0	0	0	0	0	0	0	2431.5781	0
0	0	0	0	0	0	0	0	0	0	0	0	0	0	0	0	0	0	2431.5938	0
0	0	0	0	0	0	0	0	0	0	0	0	0	0	0	0	0	0	2431.6094	0
0	0	0	0	0	0	0	0	0	0	0	0	0	0	0	0	0	0	2431.625	0
0	0	0	0	0	0	0	0	0	0	0	0	0	0	0	0	0	0	2431.6406	0
0	0	0	0	0	0	0	0	0	0	0	0	0	0	0	0	0	0	2431.6562	0
0	0	0	0	0	0	0	0	0	0	0	0	0	0	0	0	0	0	2431.6719	0
0	0	0	0	0	0	0	0	0	0	0	0	0	0	0	0	0	0	2431.6875	0
0	0	0	0	0	0	0	0	0	0	0	0	0	0	0	0	0	0	2431.7031	0
0	0	0	0	0	0	0	0	0	0	0	0	0	0	0	0	0	0	2431.7188	0
0	0	0	0	0	0	0	0	0	0	0	0	0	0	0	0	0	0	2431.7344	0
0	0	0	0	0	0	0	0	0	0	0	0	0	0	0	0	0	0	2431.75	0
0	0	0	0	0	0	0	0	0	0	0	0	0	0	0	0	0	0	2431.7656	0
0	0	0	0	0	0	0	0	0	0	0	0	0	0	0	0	0	0	2431.7812	0
0	0	0	0	0	0	0	0	0	0	0	0	0	0	0	0	0	0	2431.7969	0
0	0	0	0	0	0	0	0	0	0	0	0	0	0	0	0	0	0	2431.8125	0
0	0	0	0	0	0	0	0	0	0	0	0	0	0	0	0	0	0	2431.8281	0
0	0	0	0	0	0	0	0	0	0	0	0	0	0	0	0	0	0	2431.8438	0
0	0	0	0	0	0	0	0	0	0	0	0	0	0	0	0	0	0	2431.8594	0
6.1905	-30.2833	1.1712	15.8946	0	-18.7388	-14.2214	7.6963	-8.8675	-6.6924	1.6731	6.8598	2.175	-10.8752	-16.8984	0.3346	-26.6025	-18.5715	4130.6406	0
10.3733	-31.9564	1.5058	14.2214	1.3385	-19.7427	-14.3888	8.0309	-5.0193	-7.529	1.3385	5.354	-0.6692	-7.529	-17.735	1.1712	-26.4352	-18.2369	4130.6562	0
2.5097	-31.1199	0.8366	15.7272	1.5058	-20.2446	-13.7195	9.704	-13.2176	-7.0271	3.0116	5.1866	0.6692	-7.1944	-17.9023	1.6731	-25.7659	-17.735	4130.6719	0
10.3733	-31.9564	1.5058	15.058	-11.5445	-18.4042	-14.2214	9.2021	-6.1905	-7.0271	1.5058	6.6924	-13.3849	-5.0193	-18.2369	1.6731	-26.2678	-17.233	4130.6875	0
20.0773	-32.291	1.0039	17.4004	-1.3385	-19.4081	-13.7195	10.3733	5.354	-9.2021	0.6692	9.3694	-1.6731	-6.3578	-17.5677	1.5058	-26.6025	-16.7311	4130.7031	0
6.3578	-31.7891	0.5019	19.2408	2.0077	-20.2446	-12.2137	9.8714	-8.1982	-9.0348	4.852	6.6924	0.1673	-7.529	-14.2214	1.0039	-27.439	-16.5638	4130.7188	0
19.2408	-31.1199	1.1712	20.2446	11.8791	-18.7388	-12.7156	12.5483	4.0155	-7.529	3.5135	9.5367	6.6924	-5.6886	-12.2137	4.1828	-26.1005	-16.0619	4130.7344	0
7.8636	-32.9603	1.3385	18.2369	6.3578	-21.0812	-14.3888	9.8714	-6.8598	-10.206	-0.3346	11.8791	1.8404	-4.0155	-18.5715	1.5058	-27.941	-15.8946	4130.75	0
13.3849	-32.9603	1.5058	18.9062	-1.0039	-18.2369	-14.3888	10.7079	-1.0039	-9.3694	3.3462	7.8636	1.0039	-10.5406	-14.8907	1.5058	-27.941	-16.5638	4130.7656	0
3.0116	-32.9603	1.5058	19.91	0.1673	-19.4081	-14.5561	10.7079	-9.2021	-11.2098	2.5097	9.3694	-8.0309	-2.8443	-14.0541	1.8404	-28.7775	-16.3965	4130.7812	0
21.5831	-33.2949	1.6731	19.5754	7.6963	-19.2408	-15.3926	11.5445	7.8636	-8.5329	1.0039	9.2021	0.6692	-2.0077	-15.7272	1.6731	-29.4468	-14.7234	4130.7969	0
15.7272	-33.9642	1.0039	19.91	3.5135	-18.4042	-16.3965	11.2098	4.0155	-11.8791	0	10.5406	-3.8482	-3.1789	-15.058	2.0077	-30.4506	-15.5599	4130.8125	0
12.7156	-33.2949	1.5058	18.5715	1.3385	-16.7311	-15.8946	10.8752	0.3346	-10.8752	0.3346	9.704	-3.6808	-5.0193	-14.3888	2.677	-29.1121	-16.5638	4130.8281	0
9.2021	-32.793	0.8366	19.5754	-2.8443	-19.2408	-15.5599	10.5406	-2.175	-10.8752	0.1673	9.704	-9.8714	-1.8404	-17.0657	1.6731	-31.2872	-15.7272	4130.8438	0
11.2098	-33.6295	0.6692	18.9062	2.5097	-19.5754	-15.8946	11.7118	0.3346	-11.8791	-0.3346	9.0348	-6.0232	-2.8443	-15.7272	3.3462	-31.6218	-14.8907	4130.8594	0
13.8868	-33.2949	0	17.5677	9.0348	-19.0735	-16.0619	10.0387	3.1789	-13.3849	-1.1712	9.5367	-0.3346	-3.1789	-14.5561	2.0077	-30.4506	-15.5599	4130.875	0
3.6808	-32.793	0	16.7311	6.8598	-18.0696	-16.7311	10.3733	-7.3617	-13.5522	0.1673	8.3656	1.5058	-5.0193	-16.7311	2.677	-27.7736	-17.233	4130.8906	0
21.2485	-32.793	-0.3346	16.8984	5.354	-19.2408	-16.2292	10.206	10.0387	-13.5522	-0.3346	8.8675	-8.0309	1.5058	-16.3965	3.0116	-27.2717	-17.0657	4130.9062	0
13.8868	-32.793	0	18.9062	7.3617	-18.0696	-16.3965	10.7079	4.3501	-14.2214	-1.0039	10.8752	-2.677	-1.8404	-15.5599	3.6808	-25.5986	-18.9062	4130.9219	0
14.5561	-33.4622	0.5019	18.0696	9.3694	-18.9062	-16.0619	9.3694	4.852	-14.8907	2.175	7.529	2.677	-5.8559	-16.2292	3.1789	-26.1005	-18.9062	4130.9375	0
-7.3617	-32.4584	-0.3346	20.0773	5.0193	-17.4004	-16.5638	10.5406	-17.0657	-14.3888	1.3385	10.0387	-11.2098	3.5135	-14.3888	3.6808	-24.762	-18.9062	4130.9531	0
11.7118	-32.9603	0.3346	19.7427	13.0503	-18.7388	-15.7272	10.206	2.0077	-14.8907	0.6692	11.0425	5.354	-6.5251	-14.0541	4.0155	-24.2601	-19.4081	4130.9688	0
15.058	-32.793	0.3346	20.412	14.8907	-18.5715	-15.8946	9.704	5.6886	-14.5561	-1.3385	13.2176	2.5097	-0.3346	-16.5638	4.5174	-24.9294	-17.9023	4130.9844	0
8.3656	-33.4622	0.5019	20.7466	-2.0077	-18.7388	-15.5599	10.7079	0	-14.2214	-0.1673	10.5406	-15.5599	-1.3385	-13.8868	5.1866	-25.4313	-17.4004	4131	0
3.8482	-32.793	0.5019	19.2408	9.704	-18.0696	-16.3965	9.2021	-3.6808	-15.3926	-0.8366	10.7079	-6.0232	-2.0077	-12.883	5.354	-25.5986	-17.5677	4131.0156	0
6.8598	-32.1237	0.1673	19.2408	-2.8443	-16.5638	-16.2292	9.704	-0.5019	-14.8907	0.5019	9.0348	-14.3888	-2.5097	-14.5561	5.5213	-24.2601	-18.4042	4131.0312	0
10.7079	-32.9603	0.8366	18.9062	2.3424	-18.7388	-15.5599	9.3694	3.6808	-15.5599	2.5097	6.8598	-13.8868	-1.3385	-12.2137	4.852	-24.5947	-17.4004	4131.0469	0
7.6963	-33.4622	1.0039	17.9023	4.0155	-19.91	-15.058	8.8675	0.1673	-14.0541	0.5019	6.5251	-14.2214	1.5058	-13.7195	4.3501	-24.0928	-16.5638	4131.0625	0
4.6847	-32.793	1.5058	17.4004	14.0541	-19.7427	-14.5561	10.0387	-2.8443	-15.3926	0.8366	8.1982	-5.8559	3.8482	-12.7156	4.5174	-23.7582	-17.0657	4131.0781	0
0.3346	-33.1276	0.8366	17.9023	7.3617	-19.2408	-15.058	9.704	-6.3578	-16.3965	-1.0039	9.704	-8.7002	-1.8404	-11.2098	4.5174	-24.0928	-16.5638	4131.0938	0
6.3578	-32.793	1.1712	16.3965	3.3462	-18.9062	-14.2214	10.206	-0.3346	-16.5638	1.1712	6.8598	-16.3965	2.175	-10.206	4.852	-24.5947	-15.058	4131.1094	0
5.8559	-32.793	0.6692	16.7311	4.3501	-18.7388	-13.3849	9.5367	-0.1673	-14.5561	0.6692	4.5174	-16.8984	2.677	-11.3772	7.3617	-24.9294	-14.2214	4131.125	0
4.5174	-33.4622	0.3346	16.7311	7.6963	-18.9062	-13.5522	10.5406	-4.5174	-20.0773	1.3385	11.3772	-11.3772	6.8598	-11.7118	2.0077	-26.7698	-13.5522	4131.1406	0
12.0464	-33.7968	0.5019	17.233	0.5019	-17.5677	-13.7195	10.206	6.8598	-18.0696	-0.8366	8.0309	-14.7234	-4.1828	-6.5251	4.852	-26.9371	-13.3849	4131.1562	0
-1.1712	-33.9642	0.6692	16.2292	2.8443	-18.2369	-14.3888	9.0348	-5.8559	-18.0696	-0.3346	6.0232	-12.7156	-3.5135	-8.8675	4.3501	-27.2717	-13.3849	4131.1719	0
3.8482	-33.6295	0.5019	16.2292	9.2021	-19.0735	-14.3888	9.704	-0.6692	-17.9023	-0.6692	6.1905	-7.6963	-0.5019	-11.5445	5.1866	-27.2717	-13.2176	4131.1875	0
4.0155	-34.4661	1.1712	15.8946	-0.6692	-18.4042	-14.0541	9.3694	0.3346	-19.5754	1.3385	4.5174	-17.4004	-1.6731	-9.5367	4.852	-27.2717	-12.7156	4131.2031	0
1.0039	-32.291	0.3346	16.2292	0.3346	-20.412	-13.8868	9.0348	-2.0077	-17.9023	0.5019	4.6847	-20.412	1.0039	-9.8714	4.3501	-26.6025	-12.7156	4131.2188	0
-5.8559	-32.4584	0.6692	17.5677	-7.529	-18.9062	-14.2214	9.704	-8.5329	-18.0696	-0.5019	7.0271	-26.1005	2.677	-13.5522	6.0232	-27.2717	-12.0464	4131.2344	0
4.5174	-32.4584	1.0039	16.5638	-0.3346	-18.4042	-14.2214	10.206	2.5097	-18.7388	-1.5058	7.3617	-19.0735	-1.1712	-8.7002	6.1905	-26.9371	-12.2137	4131.25	0
4.6847	-32.4584	1.1712	17.0657	4.1828	-17.9023	-13.7195	9.704	3.6808	-17.9023	-3.6808	8.3656	-15.5599	1.6731	-9.2021	5.354	-25.4313	-12.5483	4131.2656	0
-0.3346	-32.291	0.6692	16.5638	-1.0039	-17.4004	-13.7195	11.2098	-2.3424	-18.4042	0.3346	5.0193	-17.735	1.0039	-11.5445	7.3617	-25.5986	-12.7156	4131.2812	0
-1.8404	-31.4545	1.5058	15.2253	8.1982	-18.9062	-13.0503	10.3733	-3.3462	-18.9062	0.3346	5.354	-8.3656	-4.1828	-7.3617	6.5251	-24.4274	-13.5522	4131.2969	0
-0.1673	-30.6179	0.8366	16.2292	4.1828	-18.2369	-12.883	10.3733	-1.5058	-18.7388	-1.6731	8.1982	-12.381	-0.8366	-10.5406	7.1944	-23.0889	-13.5522	4131.3125	0
-0.1673	-30.7852	1.0039	15.058	0	-16.7311	-13.2176	10.206	-2.5097	-17.735	-0.8366	6.1905	-13.2176	-1.0039	-12.5483	7.0271	-22.7543	-13.7195	4131.3281	0
-3.3462	-30.116	0.8366	15.3926	-13.2176	-17.735	-12.381	9.704	-5.0193	-19.5754	0.1673	7.1944	-35.3026	6.3578	-11.8791	7.1944	-22.587	-13.8868	4131.3438	0
1.3385	-30.2833	1.3385	14.5561	9.0348	-19.0735	-12.381	9.3694	-0.5019	-18.5715	0.6692	5.354	-13.7195	2.8443	-9.3694	7.1944	-23.2562	-13.5522	4131.3594	0
3.1789	-30.116	0.6692	14.2214	3.0116	-16.8984	-12.381	9.704	1.1712	-18.2369	-1.1712	6.1905	-10.3733	-5.6886	-8.0309	7.529	-23.2562	-13.5522	4131.375	0
-0.8366	-30.7852	0.8366	15.058	-3.6808	-17.9023	-12.0464	9.2021	-3.0116	-18.2369	-0.1673	5.6886	-19.0735	-1.3385	-11.8791	7.8636	-22.9216	-13.5522	4131.3906	0
-4.0155	-30.2833	1.1712	14.5561	-4.1828	-16.8984	-11.3772	8.7002	-5.354	-16.8984	-0.8366	4.5174	-21.7504	2.0077	-12.5483	8.5329	-23.9255	-13.2176	4131.4062	0
-5.8559	-29.6141	0.8366	15.058	7.0271	-20.412	-11.2098	8.7002	-8.0309	-17.0657	0	5.5213	-9.3694	-2.5097	-11.7118	7.6963	-24.2601	-12.381	4131.4219	0
-4.6847	-29.2794	1.1712	15.5599	-0.3346	-17.735	-10.7079	9.0348	-5.8559	-17.5677	-0.3346	6.5251	-19.2408	2.677	-10.7079	7.529	-23.7582	-11.3772	4131.4375	0
-4.1828	-29.4468	1.5058	14.8907	9.3694	-18.5715	-11.0425	9.704	-5.5213	-17.9023	0.8366	5.354	-7.3617	-3.3462	-5.6886	5.8559	-23.2562	-11.5445	4131.4531	0
1.3385	-29.4468	1.3385	15.3926	-3.3462	-16.8984	-11.0425	9.5367	0.5019	-17.5677	0	5.6886	-17.735	-1.6731	-9.704	7.3617	-23.0889	-11.3772	4131.4688	0
5.6886	-29.4468	1.6731	15.3926	6.5251	-18.7388	-10.3733	9.5367	4.0155	-16.5638	0.5019	5.354	-13.5522	4.5174	-11.2098	7.1944	-23.0889	-11.2098	4131.4844	0
-1.5058	-27.7736	1.5058	17.4004	0.8366	-17.0657	-10.3733	9.8714	-3.5135	-14.8907	1.3385	6.6924	-18.9062	4.0155	-8.7002	6.8598	-24.0928	-10.3733	4131.5	0
-2.3424	-29.1121	0.8366	15.2253	7.6963	-18.9062	-11.7118	8.3656	-3.1789	-17.4004	0.3346	4.852	-7.8636	-2.175	-12.0464	7.529	-25.9332	-10.3733	4131.5156	0
-4.6847	-29.6141	1.8404	15.3926	4.1828	-18.4042	-10.5406	9.0348	-6.3578	-16.8984	-2.677	8.8675	-15.8946	3.0116	-7.8636	5.0193	-25.5986	-9.0348	4131.5312	0
-0.6692	-29.1121	1.8404	14.7234	8.8675	-18.5715	-10.0387	8.7002	-1.3385	-17.4004	-0.1673	5.6886	-9.3694	-1.3385	-6.6924	6.3578	-26.7698	-8.8675	4131.5469	0
0.5019	-28.4429	2.175	15.3926	7.529	-19.0735	-10.3733	8.8675	-0.1673	-16.5638	0.6692	5.6886	-12.0464	3.0116	-10.0387	6.0232	-25.9332	-7.1944	4131.5625	0
-0.3346	-28.4429	1.8404	15.3926	-5.354	-16.3965	-9.8714	8.7002	-1.0039	-16.3965	-1.5058	7.3617	-19.5754	-0.3346	-9.3694	6.3578	-26.1005	-6.8598	4131.5781	0
0	-28.2756	1.3385	15.2253	6.1905	-17.0657	-10.0387	8.0309	-0.6692	-15.3926	-1.5058	5.8559	-9.0348	-1.3385	-8.8675	6.3578	-26.1005	-7.6963	4131.5938	0
-4.6847	-28.4429	2.0077	14.8907	-4.5174	-15.8946	-11.0425	8.5329	-5.0193	-17.735	-1.5058	8.0309	-20.9139	-0.8366	-7.529	6.3578	-26.7698	-6.8598	4131.6094	0
-4.1828	-27.6063	1.3385	14.8907	6.8598	-16.2292	-10.7079	7.529	-4.3501	-17.0657	-2.175	8.0309	-6.1905	-3.3462	-8.3656	5.354	-25.5986	-7.8636	4131.625	0
1.1712	6.3578	3.1789	0.3346	0.5019	2.677	7.1944	0.8366	1.5058	5.8559	1.3385	2.3424	1.6731	7.529	0	2.0077	4.0155	9.0348	2669.375	0
-1.1712	6.5251	3.0116	-1.0039	0.3346	2.175	7.0271	0.3346	-1.0039	6.0232	0.5019	1.8404	0.8366	4.5174	3.6808	0.8366	3.6808	9.3694	2669.3906	0
-0.3346	5.1866	3.0116	-0.3346	-1.8404	2.8443	6.3578	0.8366	0	5.6886	0.1673	1.6731	0.5019	3.6808	3.1789	0.8366	3.0116	9.704	2669.4062	0
1.6731	6.0232	3.8482	0	3.1789	3.0116	7.3617	2.0077	1.0039	7.1944	0.8366	2.5097	2.8443	6.3578	4.6847	1.6731	3.5135	10.3733	2669.4219	0
-1.6731	6.5251	3.6808	-1.3385	2.0077	2.175	7.0271	0.6692	0.1673	7.1944	0	-0.1673	1.5058	2.0077	4.852	3.5135	2.677	10.206	2669.4375	0
-2.3424	6.1905	3.1789	-2.3424	0.1673	3.5135	7.6963	1.5058	-2.5097	3.6808	2.3424	1.1712	3.1789	6.5251	4.3501	-1.1712	2.3424	11.3772	2669.4531	0
1.8404	6.0232	3.5135	-2.3424	0	3.0116	6.8598	0.6692	3.0116	6.1905	0.5019	-0.6692	0.6692	5.354	3.8482	0.6692	0.5019	11.7118	2669.4688	0
-2.8443	5.354	3.6808	-2.0077	-1.1712	2.677	6.8598	0.1673	-1.0039	5.354	-0.6692	0.5019	-2.5097	8.0309	1.0039	2.0077	1.5058	11.3772	2669.4844	0
2.0077	4.852	3.6808	-1.0039	-0.6692	3.3462	6.6924	1.3385	3.3462	4.852	1.3385	0	-2.5097	6.8598	3.6808	2.677	0.5019	11.8791	2669.5	0
2.0077	5.0193	3.3462	-1.3385	1.3385	2.5097	7.0271	1.0039	2.5097	5.8559	0	0.6692	3.0116	3.1789	3.8482	1.8404	-1.0039	12.2137	2669.5156	0
-2.677	5.1866	3.3462	-0.5019	-1.5058	2.175	5.8559	1.0039	-1.6731	4.5174	-0.1673	2.677	-0.5019	3.0116	4.1828	0.8366	-0.3346	11.8791	2669.5312	0
2.677	5.6886	2.677	0	0	2.8443	6.5251	0.3346	2.677	6.5251	0.8366	1.0039	1.8404	5.1866	0.6692	2.0077	0.1673	12.0464	2669.5469	0
3.0116	4.852	3.5135	-0.5019	-2.5097	2.8443	5.5213	1.1712	3.6808	5.5213	-1.1712	2.8443	-1.5058	4.5174	2.3424	1.6731	1.6731	11.5445	2669.5625	0
-0.8366	5.0193	3.6808	-1.6731	-3.0116	2.175	6.3578	0	-0.8366	5.6886	-1.0039	2.3424	-2.175	3.8482	2.0077	1.8404	1.8404	11.7118	2669.5781	0
0.3346	5.354	3.3462	-1.5058	-1.1712	3.1789	6.3578	0	1.8404	4.0155	1.6731	0	1.8404	3.8482	0.5019	2.175	3.0116	10.8752	2669.5938	0
2.677	5.354	3.1789	0.5019	-1.5058	3.0116	5.5213	1.3385	2.5097	4.852	0.6692	3.6808	-1.5058	3.3462	4.1828	2.3424	3.8482	9.8714	2669.6094	0
1.1712	5.8559	3.1789	1.5058	-1.5058	3.6808	6.0232	1.0039	0.6692	5.1866	0.8366	5.0193	1.0039	2.5097	3.3462	2.3424	5.1866	9.3694	2669.625	0
1.6731	6.0232	3.5135	2.0077	0.3346	3.6808	6.1905	1.5058	1.3385	4.852	1.0039	6.0232	2.677	3.0116	3.3462	2.677	6.5251	8.5329	2669.6406	0
4.5174	6.1905	2.8443	2.0077	0.6692	3.6808	6.5251	1.5058	4.0155	4.6847	-0.8366	7.6963	1.6731	5.5213	2.0077	3.1789	6.5251	8.8675	2669.6562	0
2.8443	6.0232	3.0116	0.1673	1.5058	3.6808	6.3578	1.0039	2.3424	5.354	0.5019	3.8482	2.3424	4.3501	2.677	3.1789	6.3578	8.0309	2669.6719	0
-10.3733	7.0271	3.1789	-1.6731	1.5058	2.8443	6.6924	0.6692	-10.206	4.852	1.0039	2.5097	1.6731	4.0155	2.5097	3.5135	6.5251	7.3617	2669.6875	0
2.3424	5.6886	3.6808	-2.3424	1.5058	2.0077	6.6924	0.1673	1.8404	5.6886	-0.8366	2.677	3.0116	2.5097	1.3385	3.5135	6.3578	7.529	2669.7031	0
1.0039	5.6886	3.1789	-3.1789	0.1673	2.3424	6.8598	0.1673	0.6692	5.5213	0.5019	0	-1.5058	2.677	4.6847	3.6808	6.8598	7.6963	2669.7188	0
-1.0039	7.3617	2.677	-3.0116	0.8366	2.8443	6.6924	0.5019	0.1673	5.6886	-0.5019	0.6692	2.8443	1.5058	3.0116	3.5135	6.3578	8.0309	2669.7344	0
3.0116	6.8598	3.8482	-2.175	1.6731	3.5135	6.6924	0.6692	3.5135	6.1905	-0.6692	2.5097	4.1828	1.5058	3.1789	3.6808	5.1866	9.0348	2669.75	0
3.8482	5.8559	3.5135	0.1673	0.6692	3.0116	6.8598	1.6731	3.8482	5.354	0.6692	3.5135	0.3346	6.1905	2.5097	3.1789	5.1866	9.5367	2669.7656	0
1.0039	6.3578	3.3462	0	4.6847	3.0116	5.6886	1.8404	1.3385	5.1866	0.5019	3.6808	5.8559	3.5135	2.3424	3.5135	5.6886	9.704	2669.7812	0
-8.0309	7.1944	2.677	1.1712	1.1712	2.3424	7.0271	1.5058	-8.8675	6.8598	-0.5019	5.5213	2.175	3.0116	3.8482	3.0116	5.8559	9.5367	2669.7969	0
6.1905	7.3617	4.0155	1.3385	2.175	3.5135	7.3617	2.3424	6.0232	8.5329	2.0077	2.3424	-0.6692	5.6886	5.8559	4.5174	5.1866	10.206	2669.8125	0
1.0039	5.5213	3.5135	-1.1712	-5.6886	2.5097	6.1905	0.1673	0.3346	3.1789	0	5.354	-0.6692	2.5097	2.0077	-0.6692	3.0116	10.206	2669.8281	0
-1.1712	5.6886	3.0116	0.5019	-1.0039	2.175	6.0232	0	-0.6692	5.354	-0.3346	3.6808	-0.5019	3.1789	2.677	1.8404	3.3462	10.0387	2669.8438	0
-0.5019	5.1866	3.6808	1.1712	5.1866	2.0077	6.8598	0.8366	-0.1673	5.6886	1.0039	3.0116	7.529	1.5058	3.6808	2.175	3.6808	10.5406	2669.8594	0
-0.1673	5.8559	3.6808	1.6731	-3.5135	2.0077	6.3578	1.0039	0.6692	5.8559	0.3346	4.1828	-2.677	5.354	1.1712	2.0077	1.6731	10.8752	2669.875	0
0	6.1905	4.0155	0.1673	3.8482	0.5019	6.6924	0.5019	2.3424	5.1866	0.1673	2.677	3.8482	2.175	3.6808	1.8404	0.3346	11.3772	2669.8906	0
-8.5329	5.354	4.3501	1.5058	2.175	2.3424	6.1905	0	-7.3617	6.0232	-1.3385	5.354	4.3501	1.5058	2.677	2.175	1.5058	11.5445	2669.9062	0
-3.1789	6.0232	3.8482	2.0077	-0.8366	2.0077	6.8598	0.1673	-1.0039	5.354	0.6692	3.6808	-0.6692	3.3462	3.8482	1.6731	1.3385	11.5445	2669.9219	0
1.3385	5.6886	3.8482	3.6808	-1.5058	1.6731	6.3578	1.1712	3.5135	4.3501	0.3346	6.3578	0.3346	4.852	-0.3346	2.8443	0.5019	11.7118	2669.9375	0
-5.6886	4.852	4.0155	5.5213	-0.1673	3.0116	5.5213	2.3424	-4.5174	4.852	0.6692	7.6963	2.8443	1.5058	2.5097	3.8482	0.3346	11.7118	2669.9531	0
1.8404	5.8559	4.0155	7.0271	-2.8443	2.0077	6.3578	0.6692	3.1789	4.852	0.5019	10.206	0	1.5058	2.0077	2.677	2.0077	11.2098	2669.9688	0
-0.1673	5.354	4.1828	8.3656	0.1673	1.1712	6.1905	0.1673	1.3385	4.1828	0.5019	11.7118	1.1712	3.5135	-0.5019	3.5135	3.5135	10.0387	2669.9844	0
-4.852	5.1866	3.3462	10.8752	1.1712	2.175	6.3578	0.6692	-5.354	4.6847	-0.5019	15.7272	2.8443	0.8366	4.0155	2.677	4.5174	9.5367	2670	0
4.0155	5.354	3.6808	7.0271	-1.1712	3.0116	6.0232	0	4.5174	4.0155	2.0077	9.5367	1.8404	0.6692	3.1789	2.175	6.0232	8.8675	2670.0156	0
2.677	5.8559	3.8482	10.206	-0.5019	2.175	6.6924	0	2.677	5.0193	1.3385	13.5522	0	2.677	3.1789	2.5097	7.8636	7.3617	2670.0312	0
-2.5097	5.8559	4.0155	12.883	2.0077	2.3424	6.8598	-0.3346	-2.677	4.5174	0.3346	18.0696	3.6808	3.5135	0.8366	2.8443	7.3617	7.529	2670.0469	0
5.8559	6.0232	3.8482	12.7156	2.5097	1.8404	7.529	-0.8366	5.354	4.852	0.6692	17.5677	5.1866	0.5019	3.1789	2.175	7.8636	7.1944	2670.0625	0
0.8366	6.1905	4.0155	14.2214	-1.8404	2.175	7.0271	-1.1712	0.8366	4.852	-0.3346	19.91	-2.8443	3.3462	3.3462	2.3424	8.7002	7.1944	2670.0781	0
-4.5174	5.8559	4.1828	17.4004	0.6692	2.175	6.8598	-1.3385	-4.0155	5.1866	0.6692	21.0812	2.0077	0.6692	3.1789	2.5097	8.3656	7.1944	2670.0938	0
2.3424	6.1905	3.6808	20.2446	0.3346	2.175	6.0232	-0.5019	3.5135	4.852	0.8366	23.2562	2.175	-0.5019	3.5135	2.8443	6.8598	7.8636	2670.1094	0
0.1673	7.1944	4.5174	17.9023	-2.8443	3.1789	7.0271	-1.6731	1.3385	5.5213	1.5058	21.4158	-1.5058	1.5058	3.1789	2.5097	6.5251	8.5329	2670.125	0
0.8366	6.6924	4.852	17.4004	0.8366	2.3424	7.6963	-0.5019	1.0039	6.5251	2.8443	19.4081	2.175	2.175	3.6808	2.3424	6.0232	8.8675	2670.1406	0
-1.8404	6.0232	4.852	18.5715	3.0116	2.677	7.529	-1.0039	-1.8404	6.5251	2.8443	20.0773	4.0155	4.0155	2.175	2.0077	5.0193	9.704	2670.1562	0
1.5058	6.5251	4.3501	20.5793	-1.6731	3.8482	7.6963	-0.3346	3.6808	4.852	3.8482	20.5793	2.175	-0.1673	5.5213	2.0077	5.0193	9.5367	2670.1719	0
-0.8366	7.1944	5.1866	14.8907	-1.0039	4.5174	8.1982	1.5058	-0.3346	7.6963	3.8482	15.2253	1.8404	1.5058	7.0271	2.8443	5.354	10.206	2670.1875	0
-0.6692	5.6886	4.5174	20.5793	-2.5097	2.8443	6.6924	-0.3346	1.0039	6.1905	4.3501	18.5715	-0.8366	1.3385	3.0116	3.1789	3.8482	10.0387	2670.2031	0
1.5058	5.8559	4.3501	35.1353	-3.6808	3.8482	7.1944	1.8404	3.1789	4.1828	1.3385	38.1469	1.8404	4.6847	0.6692	2.0077	3.3462	11.2098	2670.2188	0
-0.3346	5.0193	4.852	23.5909	-1.8404	4.0155	6.8598	2.677	1.8404	5.5213	2.5097	23.2562	3.6808	1.0039	3.6808	3.3462	2.677	11.3772	2670.2344	0
-2.0077	5.8559	4.5174	19.2408	2.175	3.0116	7.6963	2.5097	-0.1673	5.6886	2.5097	19.5754	4.3501	3.1789	3.8482	4.0155	2.3424	12.0464	2670.25	0
-4.6847	5.8559	5.6886	23.0889	0	3.5135	8.1982	3.0116	-2.5097	5.1866	3.0116	24.2601	3.0116	2.8443	5.354	3.5135	2.3424	12.5483	2670.2656	0
-2.175	4.5174	4.6847	28.9448	-0.8366	3.8482	7.0271	4.5174	-1.3385	6.3578	4.1828	26.7698	5.8559	0.8366	2.8443	5.0193	0.5019	12.5483	2670.2812	0
-1.8404	5.354	5.0193	28.9448	-1.6731	3.8482	7.0271	6.1905	0.1673	6.8598	5.6886	24.762	1.5058	2.8443	5.8559	5.1866	0.6692	13.2176	2670.2969	0
-3.5135	5.8559	6.5251	25.7659	-3.8482	4.0155	6.1905	6.5251	-0.1673	7.0271	5.6886	22.0851	-0.1673	2.5097	5.1866	5.354	1.5058	13.7195	2670.3125	0
-1.5058	6.1905	6.0232	29.4468	-1.1712	4.1828	7.3617	6.5251	1.5058	6.5251	7.0271	25.0967	2.677	3.0116	5.1866	6.0232	2.0077	13.2176	2670.3281	0
-6.0232	6.0232	5.6886	27.1044	-2.677	4.6847	7.529	7.6963	-3.3462	6.8598	4.1828	25.0967	2.3424	2.677	5.354	6.8598	1.8404	12.381	2670.3438	0
0.5019	6.5251	5.354	18.5715	-0.8366	4.5174	7.8636	8.3656	3.0116	7.1944	7.8636	12.883	3.6808	2.8443	5.6886	7.6963	4.5174	11.2098	2670.3594	0
-12.883	-3.3462	-10.3733	-0.6692	-18.9062	-11.7118	-7.529	-4.3501	-23.7582	-9.704	5.1866	1.0039	-18.9062	-10.3733	-2.677	-10.5406	-12.7156	-0.6692	3857.4688	0
-2.8443	-6.5251	-6.5251	2.0077	-7.529	-8.8675	-6.1905	-3.8482	-14.2214	-11.7118	7.1944	4.852	0.8366	-18.0696	-1.1712	-8.0309	-10.7079	0	3857.4844	0
-18.2369	-5.0193	-4.852	-0.6692	-15.7272	-9.0348	-7.0271	-5.5213	-24.5947	-14.7234	1.6731	8.8675	-13.8868	-13.0503	-1.8404	-8.5329	-8.7002	1.6731	3857.5	0
-10.8752	-5.5213	-5.8559	-0.6692	-11.8791	-7.1944	-7.529	-6.5251	-18.7388	-15.5599	-1.1712	12.5483	-15.058	-7.0271	-1.8404	-9.2021	-4.1828	-1.3385	3857.5156	0
-7.8636	-8.0309	-9.8714	2.5097	2.0077	-6.0232	-8.3656	-5.6886	-14.0541	-22.9216	-0.5019	14.2214	1.6731	-9.3694	-1.5058	-8.8675	-3.1789	-6.6924	3857.5312	0
-12.7156	-8.8675	-9.8714	4.852	3.1789	-9.5367	-6.3578	-6.0232	-16.2292	-24.4274	-0.8366	14.8907	-4.852	-3.3462	0.6692	-11.2098	-2.677	-5.6886	3857.5469	0
-4.0155	-13.0503	-9.704	5.6886	-22.7543	-8.1982	-5.5213	-8.1982	-5.6886	-28.6102	-2.175	15.3926	-27.1044	-4.6847	-1.0039	-11.8791	-3.5135	-7.8636	3857.5625	0
-9.704	-11.8791	-9.2021	2.8443	11.0425	-11.5445	-6.6924	-11.0425	-9.0348	-28.7775	-6.3578	16.2292	7.0271	-10.3733	-3.0116	-11.8791	0.5019	-9.0348	3857.5781	0
-22.587	-6.6924	-9.0348	-1.3385	-16.7311	-6.6924	-3.0116	-14.7234	-22.0851	-27.941	-6.0232	16.3965	-19.2408	-6.5251	-3.0116	-12.381	4.5174	-0.8366	3857.5938	0
-14.8907	-9.8714	-10.3733	6.5251	-17.9023	-4.1828	-3.6808	-9.2021	-13.3849	-29.1121	-3.5135	17.4004	-22.4197	-0.1673	-1.3385	-11.0425	1.6731	-7.529	3857.6094	0
-21.4158	-10.5406	-11.7118	12.0464	-13.5522	-4.3501	-6.5251	-5.1866	-17.735	-30.116	-2.175	18.4042	-10.8752	-6.0232	-3.0116	-9.704	-1.8404	-13.7195	3857.625	0
-12.5483	-10.206	-12.0464	8.5329	-2.5097	-3.1789	-6.8598	-9.2021	-14.2214	-25.264	-6.5251	19.7427	-9.3694	2.3424	-2.677	-12.0464	0.6692	-9.0348	3857.6406	0
-6.1905	-10.7079	-13.0503	8.3656	-7.1944	1.1712	-4.6847	-15.7272	-7.3617	-24.762	-6.3578	16.8984	-13.2176	-0.8366	-3.1789	-9.2021	2.8443	-8.7002	3857.6562	0
-9.2021	-14.3888	-13.3849	9.2021	0.5019	-0.1673	-5.354	-12.381	-15.5599	-28.7775	-5.5213	22.0851	0.6692	-2.175	-1.8404	-14.0541	2.8443	-13.2176	3857.6719	0
-0.6692	-14.5561	-14.3888	7.1944	-8.8675	0.1673	-8.0309	-11.8791	-8.3656	-26.2678	-8.0309	20.2446	-20.2446	3.6808	-4.1828	-7.8636	0.3346	-9.8714	3857.6875	0
-9.704	-14.0541	-15.7272	6.5251	-3.1789	0.6692	-6.6924	-12.2137	-19.5754	-27.439	-8.0309	22.0851	-5.5213	-5.6886	-3.5135	-6.6924	0.5019	-4.6847	3857.7031	0
2.677	-13.3849	-15.7272	5.354	-3.6808	3.6808	-11.2098	-9.8714	-9.2021	-24.9294	-5.1866	18.2369	-5.354	-4.0155	-5.6886	-6.0232	0.3346	-10.3733	3857.7188	0
7.6963	-13.7195	-12.883	6.8598	-12.381	6.3578	-11.0425	-8.3656	-2.677	-20.9139	-8.8675	20.412	-20.5793	0.8366	-2.3424	-3.3462	1.5058	-7.6963	3857.7344	0
-9.3694	-8.1982	-11.2098	6.6924	-13.5522	3.8482	1.1712	-6.0232	-17.233	-20.412	-9.704	25.264	-16.2292	-3.3462	2.8443	2.175	3.3462	5.354	3857.75	0
-10.206	-8.3656	-10.7079	6.8598	-17.233	1.6731	4.852	6.5251	-20.0773	-22.7543	-8.0309	28.4429	-18.4042	-1.3385	2.8443	12.7156	-1.3385	9.2021	3857.7656	0
4.3501	-4.6847	-6.5251	3.3462	-5.6886	3.8482	1.1712	10.8752	-4.1828	-23.5909	-6.3578	30.6179	-16.2292	3.0116	5.1866	18.2369	6.0232	18.0696	3857.7812	0
-5.1866	0.1673	-4.0155	5.8559	-8.1982	8.3656	0.1673	11.2098	-10.8752	-16.3965	-7.3617	31.4545	-7.6963	-3.8482	3.3462	19.7427	10.8752	20.412	3857.7969	0
-23.5909	3.5135	-2.5097	4.852	-25.5986	8.8675	0.3346	12.381	-26.4352	-17.4004	-6.0232	32.1237	-27.1044	2.175	2.8443	18.0696	6.0232	21.7504	3857.8125	0
-1.8404	2.175	-4.1828	11.8791	9.8714	0.8366	-4.852	14.0541	-5.8559	-19.0735	-2.5097	35.47	2.0077	-4.852	4.3501	18.4042	5.6886	20.2446	3857.8281	0
-3.1789	2.8443	-1.5058	12.0464	13.7195	-2.5097	-6.3578	15.3926	-6.0232	-17.0657	-2.0077	35.3026	0.5019	-5.5213	3.5135	21.7504	9.0348	18.9062	3857.8438	0
-20.9139	5.8559	1.8404	9.8714	-11.2098	-5.6886	0.6692	17.9023	-22.4197	-13.5522	-0.6692	33.2949	-17.735	-9.0348	6.0232	22.4197	13.3849	11.3772	3857.8594	0
-3.8482	8.8675	-2.5097	9.0348	-15.8946	-9.8714	3.0116	12.5483	-8.7002	-11.0425	-0.5019	31.7891	-28.6102	-5.5213	8.8675	15.058	14.0541	0.5019	3857.875	0
-0.3346	14.5561	-3.8482	9.704	20.0773	-10.3733	1.1712	9.8714	-7.0271	-10.8752	1.5058	36.4738	5.5213	-6.8598	5.1866	16.8984	15.3926	5.354	3857.8906	0
-1.6731	18.0696	-0.1673	9.0348	5.1866	-11.8791	4.852	15.058	-7.6963	-6.3578	2.677	36.6411	-1.5058	-13.2176	4.1828	23.7582	17.4004	11.0425	3857.9062	0
-6.3578	25.7659	5.0193	-0.3346	-3.8482	-8.5329	6.3578	8.5329	-10.206	-3.1789	6.5251	30.9526	-11.2098	-10.7079	2.3424	22.0851	23.4236	15.2253	3857.9219	0
-3.3462	25.264	3.0116	-3.0116	-1.0039	-9.0348	8.3656	7.0271	-5.8559	-4.0155	4.0155	27.7736	-14.5561	-5.5213	3.6808	21.7504	21.2485	6.8598	3857.9375	0
2.3424	21.2485	0.6692	-0.6692	-4.0155	-8.0309	8.7002	10.7079	-5.354	-4.3501	3.5135	29.7814	-16.3965	-7.3617	7.3617	23.7582	21.7504	8.7002	3857.9531	0
-2.3424	20.0773	2.5097	-1.1712	1.0039	-4.852	10.8752	7.6963	-14.3888	-4.1828	2.3424	35.3026	-14.3888	-4.3501	6.0232	27.439	27.941	18.7388	3857.9688	0
4.852	20.0773	3.8482	-2.175	11.7118	-3.6808	15.2253	7.0271	-6.1905	-8.5329	-5.0193	46.3452	-2.677	-3.3462	9.704	26.6025	29.9487	19.91	3857.9844	0
-0.3346	19.4081	1.3385	-7.0271	1.5058	1.3385	13.0503	7.1944	-13.7195	-8.8675	-8.7002	44.6721	-10.206	-2.5097	9.704	26.1005	29.4468	19.2408	3858	0
15.7272	17.4004	3.8482	-4.852	-2.0077	-1.3385	15.8946	10.206	3.1789	-7.0271	-6.8598	42.8317	-16.5638	-0.1673	14.5561	24.9294	27.439	24.4274	3858.0156	0
0	19.0735	8.0309	-6.5251	5.8559	2.175	20.2446	-1.3385	-9.8714	-6.3578	-4.852	41.6605	-4.5174	-4.5174	13.3849	22.587	29.7814	36.9758	3858.0312	0
-10.5406	17.735	6.8598	-10.7079	3.5135	6.3578	23.7582	-11.0425	-19.5754	-7.8636	-5.0193	35.8046	-0.6692	-1.0039	11.7118	12.5483	29.9487	35.6373	3858.0469	0
8.8675	14.7234	6.1905	-11.3772	16.0619	4.3501	18.5715	-11.0425	-1.8404	-6.3578	-2.3424	28.9448	-2.0077	8.1982	9.0348	12.7156	26.2678	28.4429	3858.0625	0
-5.5213	12.0464	8.0309	-9.8714	9.0348	7.1944	13.7195	-9.5367	-15.058	-4.3501	-1.8404	25.9332	-3.6808	3.6808	8.5329	11.8791	18.5715	30.116	3858.0781	0
-8.3656	14.5561	9.2021	-8.1982	3.1789	6.3578	14.5561	-5.6886	-14.8907	-3.3462	0.1673	25.264	-8.5329	7.3617	8.8675	10.7079	15.8946	32.291	3858.0938	0
9.704	16.2292	11.8791	-8.3656	5.5213	1.0039	19.91	-6.0232	-1.0039	-0.6692	5.5213	25.5986	-5.354	5.5213	10.8752	9.3694	15.8946	38.9835	3858.1094	0
8.3656	11.7118	10.0387	-6.5251	20.5793	-0.1673	21.0812	-2.8443	-1.8404	-4.6847	5.8559	24.2601	10.5406	2.677	14.8907	10.5406	10.5406	33.7968	3858.125	0
1.8404	11.7118	8.0309	-9.5367	22.587	5.5213	17.9023	-8.7002	-10.206	-3.8482	4.852	21.2485	4.5174	10.0387	15.058	7.6963	11.7118	33.6295	3858.1406	0
2.5097	11.5445	10.7079	-10.3733	1.5058	10.8752	16.0619	-16.8984	-10.206	-3.1789	5.354	22.4197	-13.0503	6.1905	9.5367	8.8675	14.2214	35.8046	3858.1562	0
9.704	9.5367	8.7002	-7.529	10.3733	5.8559	21.2485	-16.7311	-0.8366	-4.1828	3.6808	21.7504	-3.6808	2.8443	13.5522	8.0309	13.3849	34.1315	3858.1719	0
-3.5135	8.7002	5.5213	-6.0232	10.8752	3.1789	19.91	-11.5445	-13.8868	-5.5213	5.5213	18.5715	-1.5058	1.6731	15.058	7.1944	11.8791	26.2678	3858.1875	0
19.0735	6.6924	5.1866	-7.6963	7.8636	5.354	13.7195	-16.5638	4.6847	-3.6808	3.6808	18.5715	-9.5367	6.6924	11.0425	2.175	14.5561	22.4197	3858.2031	0
11.5445	6.0232	5.8559	-9.704	18.0696	7.3617	11.8791	-21.7504	-3.8482	-2.8443	3.3462	17.0657	1.5058	6.8598	5.354	1.8404	14.2214	23.9255	3858.2188	0
3.6808	7.8636	7.529	-11.8791	12.381	5.5213	14.0541	-19.7427	-10.206	-4.0155	4.6847	16.7311	-9.5367	8.8675	4.6847	8.1982	17.5677	23.7582	3858.2344	0
4.5174	9.8714	6.3578	-11.7118	9.5367	7.1944	16.0619	-20.7466	-8.3656	-0.6692	1.5058	16.5638	-9.2021	8.5329	5.354	7.3617	20.412	18.5715	3858.25	0
11.2098	8.0309	4.3501	-10.0387	4.5174	6.6924	16.0619	-23.9255	-4.1828	0	3.1789	14.5561	-6.1905	1.1712	2.677	5.6886	20.5793	16.3965	3858.2656	0
8.3656	3.5135	4.3501	-6.5251	6.1905	3.3462	11.8791	-20.412	-3.8482	-4.3501	2.8443	15.058	-13.2176	8.3656	1.5058	4.3501	18.0696	12.5483	3858.2812	0
-0.8366	3.3462	3.5135	-7.3617	5.6886	4.3501	11.5445	-22.4197	-11.2098	-5.8559	3.3462	12.381	-10.3733	7.1944	1.0039	1.3385	18.5715	8.0309	3858.2969	0
6.1905	3.5135	1.6731	-10.3733	12.7156	0.6692	10.8752	-23.9255	-6.0232	-4.3501	3.1789	8.1982	2.0077	-0.5019	0.1673	-1.3385	17.233	6.8598	3858.3125	0
11.8791	2.5097	0.5019	-10.3733	-5.354	-2.0077	10.3733	-21.7504	-0.6692	-4.0155	0.3346	8.8675	-22.0851	5.354	0.3346	-2.3424	17.233	6.5251	3858.3281	0
-0.8366	2.3424	2.3424	-9.8714	2.5097	-1.5058	10.5406	-19.2408	-11.0425	-6.5251	3.6808	7.8636	-8.0309	0.3346	0.8366	-0.8366	16.8984	6.3578	3858.3438	0
21.7504	-0.1673	1.6731	-8.1982	9.2021	-1.3385	10.5406	-18.7388	10.3733	-5.1866	0.6692	9.2021	-3.3462	2.5097	0.5019	0	16.5638	5.6886	3858.3594	0
9.8714	-1.1712	0	-7.8636	-1.0039	-2.8443	9.3694	-19.7427	-0.3346	-7.529	-1.1712	9.8714	-12.5483	-1.0039	0.3346	-1.0039	14.8907	2.175	3858.375	0
5.1866	0.1673	0.1673	-5.1866	1.1712	-3.8482	9.3694	-16.8984	-4.6847	-3.5135	1.6731	6.8598	-12.2137	-2.0077	2.3424	1.6731	13.7195	3.5135	3858.3906	0
3.5135	-2.0077	0.5019	-6.5251	1.8404	-3.1789	8.5329	-13.5522	-7.0271	-8.3656	-0.3346	11.2098	-10.206	3.3462	-1.0039	1.5058	11.0425	4.3501	3858.4062	0
-4.5174	-2.5097	0.1673	-5.8559	-9.2021	-5.5213	7.1944	-12.381	-13.2176	-6.0232	-2.175	8.7002	-19.91	-0.6692	-0.1673	0.8366	11.0425	1.6731	3858.4219	0
9.8714	-5.6886	-2.175	-3.5135	2.0077	-7.6963	5.1866	-12.883	0.3346	-7.0271	0.6692	4.5174	-6.1905	-5.5213	-1.1712	-0.5019	6.6924	-3.1789	3858.4375	0
1.8404	-7.529	-2.175	-4.0155	-9.3694	-8.3656	3.0116	-11.7118	-5.8559	-9.5367	-1.3385	4.852	-26.9371	3.8482	-1.3385	-2.0077	4.1828	-4.1828	3858.4531	0
0	0	0	0	0	0	0	0	0	0	0	0	0	0	0	0	0	0	2463.75	0
0	0	0	0	0	0	0	0	0	0	0	0	0	0	0	0	0	0	2463.7656	0
0	0	0	0	0	0	0	0	0	0	0	0	0	0	0	0	0	0	2463.7812	0
0	0	0	0	0	0	0	0	0	0	0	0	0	0	0	0	0	0	2463.7969	0
0	0	0	0	0	0	0	0	0	0	0	0	0	0	0	0	0	0	2463.8125	0
0	0	0	0	0	0	0	0	0	0	0	0	0	0	0	0	0	0	2463.8281	0
0	0	0	0	0	0	0	0	0	0	0	0	0	0	0	0	0	0	2463.8438	0
0	0	0	0	0	0	0	0	0	0	0	0	0	0	0	0	0	0	2463.8594	0
0	0	0	0	0	0	0	0	0	0	0	0	0	0	0	0	0	0	2463.875	0
0	0	0	0	0	0	0	0	0	0	0	0	0	0	0	0	0	0	2463.8906	0
0	0	0	0	0	0	0	0	0	0	0	0	0	0	0	0	0	0	2463.9062	0
0	0	0	0	0	0	0	0	0	0	0	0	0	0	0	0	0	0	2463.9219	0
0	0	0	0	0	0	0	0	0	0	0	0	0	0	0	0	0	0	2463.9375	0
0	0	0	0	0	0	0	0	0	0	0	0	0	0	0	0	0	0	2463.9531	0
0	0	0	0	0	0	0	0	0	0	0	0	0	0	0	0	0	0	2463.9688	0
0	0	0	0	0	0	0	0	0	0	0	0	0	0	0	0	0	0	2463.9844	0
0	0	0	0	0	0	0	0	0	0	0	0	0	0	0	0	0	0	2464	0
0	0	0	0	0	0	0	0	0	0	0	0	0	0	0	0	0	0	2464.0156	0
0	0	0	0	0	0	0	0	0	0	0	0	0	0	0	0	0	0	2464.0312	0
0	0	0	0	0	0	0	0	0	0	0	0	0	0	0	0	0	0	2464.0469	0
0	0	0	0	0	0	0	0	0	0	0	0	0	0	0	0	0	0	2464.0625	0
0	0	0	0	0	0	0	0	0	0	0	0	0	0	0	0	0	0	2464.0781	0
0	0	0	0	0	0	0	0	0	0	0	0	0	0	0	0	0	0	2464.0938	0
0	0	0	0	0	0	0	0	0	0	0	0	0	0	0	0	0	0	2464.1094	0
0	0	0	0	0	0	0	0	0	0	0	0	0	0	0	0	0	0	2464.125	0
0	0	0	0	0	0	0	0	0	0	0	0	0	0	0	0	0	0	2464.1406	0
0	0	0	0	0	0	0	0	0	0	0	0	0	0	0	0	0	0	2464.1562	0
0	0	0	0	0	0	0	0	0	0	0	0	0	0	0	0	0	0	2464.1719	0
0	0	0	0	0	0	0	0	0	0	0	0	0	0	0	0	0	0	2464.1875	0
0	0	0	0	0	0	0	0	0	0	0	0	0	0	0	0	0	0	2464.2031	0
0	0	0	0	0	0	0	0	0	0	0	0	0	0	0	0	0	0	2464.2188	0
0	0	0	0	0	0	0	0	0	0	0	0	0	0	0	0	0	0	2464.2344	0
0	0	0	0	0	0	0	0	0	0	0	0	0	0	0	0	0	0	2464.25	0
0	0	0	0	0	0	0	0	0	0	0	0	0	0	0	0	0	0	2464.2656	0
0	0	0	0	0	0	0	0	0	0	0	0	0	0	0	0	0	0	2464.2812	0
0	0	0	0	0	0	0	0	0	0	0	0	0	0	0	0	0	0	2464.2969	0
0	0	0	0	0	0	0	0	0	0	0	0	0	0	0	0	0	0	2464.3125	0
0	0	0	0	0	0	0	0	0	0	0	0	0	0	0	0	0	0	2464.3281	0
0	0	0	0	0	0	0	0	0	0	0	0	0	0	0	0	0	0	2464.3438	0
0	0	0	0	0	0	0	0	0	0	0	0	0	0	0	0	0	0	2464.3594	0
0	0	0	0	0	0	0	0	0	0	0	0	0	0	0	0	0	0	2464.375	0
0	0	0	0	0	0	0	0	0	0	0	0	0	0	0	0	0	0	2464.3906	0
0	0	0	0	0	0	0	0	0	0	0	0	0	0	0	0	0	0	2464.4062	0
0	0	0	0	0	0	0	0	0	0	0	0	0	0	0	0	0	0	2464.4219	0
0	0	0	0	0	0	0	0	0	0	0	0	0	0	0	0	0	0	2464.4375	0
0	0	0	0	0	0	0	0	0	0	0	0	0	0	0	0	0	0	2464.4531	0
0	0	0	0	0	0	0	0	0	0	0	0	0	0	0	0	0	0	2464.4688	0
0	0	0	0	0	0	0	0	0	0	0	0	0	0	0	0	0	0	2464.4844	0
0	0	0	0	0	0	0	0	0	0	0	0	0	0	0	0	0	0	2464.5	0
0	0	0	0	0	0	0	0	0	0	0	0	0	0	0	0	0	0	2464.5156	0
0	0	0	0	0	0	0	0	0	0	0	0	0	0	0	0	0	0	2464.5312	0
0	0	0	0	0	0	0	0	0	0	0	0	0	0	0	0	0	0	2464.5469	0
0	0	0	0	0	0	0	0	0	0	0	0	0	0	0	0	0	0	2464.5625	0
0	0	0	0	0	0	0	0	0	0	0	0	0	0	0	0	0	0	2464.5781	0
0	0	0	0	0	0	0	0	0	0	0	0	0	0	0	0	0	0	2464.5938	0
0	0	0	0	0	0	0	0	0	0	0	0	0	0	0	0	0	0	2464.6094	0
0	0	0	0	0	0	0	0	0	0	0	0	0	0	0	0	0	0	2464.625	0
0	0	0	0	0	0	0	0	0	0	0	0	0	0	0	0	0	0	2464.6406	0
0	0	0	0	0	0	0	0	0	0	0	0	0	0	0	0	0	0	2464.6562	0
0	0	0	0	0	0	0	0	0	0	0	0	0	0	0	0	0	0	2464.6719	0
0	0	0	0	0	0	0	0	0	0	0	0	0	0	0	0	0	0	2464.6875	0
0	0	0	0	0	0	0	0	0	0	0	0	0	0	0	0	0	0	2464.7031	0
0	0	0	0	0	0	0	0	0	0	0	0	0	0	0	0	0	0	2464.7188	0
0	0	0	0	0	0	0	0	0	0	0	0	0	0	0	0	0	0	2464.7344	0
-10.3733	4.5174	-12.7156	-31.1199	-7.0271	-4.852	16.8984	-3.6808	-0.6692	-20.0773	-11.2098	-17.735	-21.7504	-12.381	49.1895	-13.7195	-18.2369	-0.1673	3041.2656	0
-11.8791	3.3462	-11.5445	-29.7814	11.0425	-12.0464	21.9178	5.5213	-2.677	-19.0735	-8.7002	-19.4081	-0.3346	-24.4274	51.6991	-0.5019	-18.7388	0.1673	3041.2812	0
-13.3849	2.8443	-11.7118	-27.7736	-0.6692	-17.5677	22.0851	18.9062	-3.1789	-22.0851	-5.354	-19.4081	-4.852	-38.1469	35.47	30.2833	-20.2446	0.1673	3041.2969	0
-21.4158	1.1712	-12.2137	-26.1005	17.4004	-26.1005	15.058	16.7311	-10.7079	-22.0851	-7.529	-18.2369	13.5522	-38.4816	10.3733	37.645	-24.4274	-1.0039	3041.3125	0
-4.0155	-2.3424	-12.883	-26.4352	19.5754	-27.7736	15.058	10.5406	6.5251	-25.0967	-7.0271	-20.0773	11.8791	-38.8162	10.0387	34.2988	-24.762	-1.1712	3041.3281	0
-12.0464	-4.0155	-13.5522	-29.2794	17.4004	-22.9216	13.2176	-1.5058	-1.3385	-27.941	-8.3656	-21.2485	9.5367	-33.7968	6.1905	24.2601	-26.9371	0.3346	3041.3438	0
-7.0271	-5.5213	-13.8868	-29.4468	34.8007	-12.7156	16.5638	-13.7195	0.3346	-28.9448	-6.0232	-21.2485	12.883	-22.2524	14.7234	19.5754	-25.5986	3.1789	3041.3594	0
-1.0039	-4.0155	-13.7195	-32.1237	26.2678	3.5135	18.5715	-25.7659	3.1789	-28.1083	-6.3578	-19.5754	-2.3424	-12.883	11.7118	26.1005	-20.0773	8.8675	3041.375	0
-6.0232	0	-13.3849	-33.4622	25.4313	14.5561	15.2253	-33.1276	-2.677	-26.9371	-5.1866	-18.0696	-5.6886	-8.3656	-4.3501	40.4893	-10.3733	14.7234	3041.3906	0
15.5599	3.5135	-10.7079	-32.1237	32.6257	13.8868	7.8636	-25.4313	16.8984	-25.7659	-4.852	-10.0387	-3.6808	-2.8443	-22.7543	58.2243	-0.3346	21.0812	3041.4062	0
-2.5097	5.8559	-9.5367	-25.4313	23.0889	-4.1828	-13.0503	5.8559	2.0077	-24.5947	-1.8404	-7.1944	-14.2214	-14.7234	-26.7698	67.4264	0.6692	20.2446	3041.4219	0
-1.3385	1.5058	-9.2021	-21.7504	26.9371	-25.0967	-29.6141	38.4816	2.8443	-27.941	0.6692	-6.3578	-5.8559	-29.7814	-17.9023	64.2475	-10.5406	12.0464	3041.4375	0
7.529	1.5058	-7.529	-24.0928	23.7582	-30.6179	-36.1392	32.1237	14.8907	-27.1044	-2.0077	-8.3656	-12.381	-28.7775	-8.1982	38.4816	-15.058	9.3694	3041.4531	0
6.0232	8.1982	-4.1828	-19.7427	1.3385	-27.941	-32.9603	47.1817	16.3965	-22.9216	1.0039	-4.1828	-28.6102	-22.7543	-7.1944	46.1779	-13.0503	11.5445	3041.4688	0
-6.3578	11.0425	-1.3385	-18.7388	23.9255	-35.8046	-21.2485	62.909	8.8675	-16.0619	0.1673	-8.3656	-7.3617	-6.0232	-4.0155	47.1817	-17.233	9.3694	3041.4844	0
8.3656	12.0464	1.0039	-14.2214	18.2369	-41.8278	-9.0348	58.7262	21.9178	-11.0425	2.8443	-6.5251	-3.8482	-2.175	1.5058	30.6179	-19.5754	12.883	3041.5	0
-2.0077	9.8714	1.0039	-15.058	1.8404	-47.6837	4.6847	48.8549	13.5522	-7.0271	2.175	-14.8907	-13.2176	0.6692	-0.5019	20.7466	-22.7543	17.4004	3041.5156	0
-5.1866	7.1944	-1.1712	-18.7388	13.2176	-43.5009	6.0232	27.6063	9.8714	-5.8559	-1.0039	-20.9139	0.8366	7.6963	0.5019	-5.6886	-22.2524	18.4042	3041.5312	0
3.6808	6.0232	-5.6886	-31.6218	1.5058	-41.1585	13.8868	6.3578	12.5483	-2.5097	-5.8559	-31.7891	-1.0039	3.8482	-8.5329	-13.7195	-15.3926	15.3926	3041.5469	0
1.3385	5.1866	-8.3656	-37.645	-1.0039	-35.47	25.9332	-7.3617	4.3501	6.8598	-5.8559	-44.8394	1.8404	2.677	1.6731	-24.0928	-7.0271	7.1944	3041.5625	0
10.3733	2.175	-11.5445	-49.0222	0.8366	-33.2949	26.9371	-16.0619	10.7079	8.3656	-7.8636	-59.2281	-9.2021	-8.7002	17.4004	-21.0812	-8.1982	-1.3385	3041.5781	0
-1.0039	-3.1789	-12.0464	-44.3375	-18.2369	-31.7891	25.9332	-20.9139	0.8366	8.1982	-6.0232	-63.5782	-18.5715	-21.5831	22.0851	-26.9371	-14.2214	-13.7195	3041.5938	0
-3.6808	-1.0039	-10.3733	-36.3065	-4.3501	-33.6295	25.264	-29.2794	-0.3346	10.8752	-6.3578	-55.5473	5.0193	-34.8007	12.883	-25.0967	3.0116	-15.8946	3041.6094	0
-3.1789	5.6886	-8.7002	-35.47	-37.9796	-3.8482	28.7775	-39.6527	-1.5058	12.7156	-4.0155	-48.8549	-20.7466	-32.4584	6.1905	-5.6886	30.7852	-14.3888	3041.625	0
-15.2253	-0.3346	-8.7002	-30.9526	-56.3839	-1.5058	17.9023	-51.0299	-13.2176	17.735	-9.5367	-50.1933	-33.4622	-33.9642	1.5058	-25.0967	31.6218	-27.6063	3041.6406	0
-8.1982	-2.8443	-5.354	-24.2601	-61.5705	1.6731	18.9062	-50.026	-10.5406	29.4468	-6.0232	-53.5396	-13.7195	-42.8317	-2.8443	-31.6218	34.8007	-13.7195	3041.6562	0
-7.529	-5.1866	-0.8366	-19.0735	-67.5937	-7.6963	15.7272	-38.4816	-12.883	40.1547	-9.3694	-50.528	-10.206	-57.555	-5.1866	-25.0967	25.5986	-2.677	3041.6719	0
-11.8791	-8.7002	3.1789	-14.8907	-86.4999	-13.2176	15.058	-25.264	-13.7195	44.0028	-14.0541	-48.5202	-42.3297	-56.0492	1.0039	-12.5483	9.8714	3.8482	3041.6875	0
-19.5754	-7.1944	3.6808	-17.233	-81.3132	-26.2678	12.381	-19.91	-15.058	43.6682	-14.0541	-54.8781	-33.4622	-76.6285	-0.5019	-4.5174	1.3385	9.5367	3041.7031	0
-11.7118	-2.175	4.3501	-24.9294	-6.8598	-50.3607	8.1982	-19.7427	2.677	37.8123	-14.8907	-60.0647	-3.8482	-57.2204	0.8366	-8.5329	-2.8443	11.3772	3041.7188	0
13.3849	-13.8868	5.5213	-36.9758	-34.2988	-2.5097	9.2021	-13.0503	18.2369	32.4584	-10.5406	-72.1111	-2.8443	-34.968	9.0348	-11.8791	7.1944	11.0425	3041.7344	0
47.6837	-38.1469	4.3501	-45.8433	-65.9206	69.6014	13.5522	-6.8598	24.2601	30.6179	-8.0309	-78.8035	-10.3733	15.3926	16.2292	-10.8752	10.7079	6.0232	3041.75	0
53.3723	-41.8278	0.6692	-48.6875	-93.3596	110.0907	26.1005	-8.1982	32.4584	18.5715	-5.5213	-81.9825	-21.0812	42.497	20.412	-7.1944	15.5599	7.3617	3041.7656	0
86.8345	-43.8355	-0.6692	-48.3529	-73.9515	99.8847	31.9564	-6.5251	51.1972	13.0503	6.5251	-76.7958	-9.2021	42.1624	21.2485	-2.8443	12.883	5.5213	3041.7812	0
94.6981	-40.322	2.0077	-47.5164	-52.0338	73.9515	29.2794	-11.3772	37.1431	20.7466	12.5483	-61.5705	-4.5174	30.7852	17.735	-4.1828	6.5251	1.0039	3041.7969	0
84.4921	-14.8907	6.5251	-47.0144	6.8598	55.2127	25.7659	-13.3849	42.3297	6.5251	23.0889	-42.8317	45.0067	30.7852	9.8714	-11.2098	12.5483	3.0116	3041.8125	0
69.6014	-25.7659	9.3694	-47.1817	25.9332	49.6914	24.9294	-8.8675	21.2485	-6.6924	31.7891	-40.322	62.909	23.7582	16.8984	-11.8791	13.8868	1.5058	3041.8281	0
63.7455	-45.3413	0.5019	-44.1701	20.2446	23.9255	17.0657	-6.1905	0.5019	-20.7466	34.2988	-39.3181	41.9951	11.8791	14.7234	-13.5522	12.7156	-5.8559	3041.8438	0
14.3888	-3.3462	-1.5058	-46.3452	22.0851	12.381	16.0619	-12.0464	-20.9139	-8.5329	27.2717	-34.6334	41.6605	-6.3578	12.883	-9.704	37.1431	0.1673	3041.8594	0
25.264	60.7339	-2.3424	-59.0608	-13.7195	22.9216	19.91	-11.7118	21.7504	18.0696	20.2446	-35.47	4.0155	5.5213	14.2214	-6.3578	95.0327	1.1712	3041.875	0
1.8404	110.258	0	-45.3413	3.0116	11.8791	13.5522	-12.883	30.7852	48.8549	22.0851	-34.968	25.5986	-1.5058	7.529	-16.0619	127.6584	0.6692	3041.8906	0
-22.7543	166.14	15.7272	-27.7736	3.1789	29.1121	16.0619	-18.0696	74.4535	57.8897	17.4004	-18.4042	49.0222	-6.8598	5.5213	-17.4004	192.0732	12.7156	3041.9062	0
20.5793	183.5403	25.4313	-28.6102	34.8007	49.3568	27.941	-26.7698	105.406	87.0018	28.4429	-19.91	93.8615	-2.0077	8.1982	-14.7234	224.6989	17.4004	3041.9219	0
97.5424	152.0858	24.9294	-23.7582	57.0531	48.6875	27.1044	-9.704	144.8914	95.5347	35.47	-25.0967	110.5927	14.5561	7.8636	-9.8714	219.0103	8.7002	3041.9375	0
137.6971	130.1681	12.0464	-27.2717	83.4883	41.9951	28.9448	-14.8907	165.4707	84.9941	21.0812	-18.9062	128.8296	14.5561	9.3694	-13.2176	195.2521	2.8443	3041.9531	0
145.728	137.3624	0.1673	-44.5048	91.1846	37.4777	39.1508	-34.1315	174.6728	77.7997	24.762	-38.4816	128.6623	4.0155	16.0619	-15.058	197.9291	5.0193	3041.9688	0
122.8064	118.9582	1.5058	-61.9051	67.4264	28.7775	41.6605	-41.3259	139.8721	64.4148	15.8946	-38.8162	101.0559	-6.6924	21.4158	-19.2408	167.4784	2.3424	3041.9844	0
104.2348	83.9902	-8.0309	-55.0454	65.2513	2.8443	17.0657	-24.9294	117.787	20.7466	9.8714	-23.2562	78.8035	-11.2098	11.0425	-18.4042	133.347	-6.3578	3042	0
71.9438	57.0531	-5.5213	-52.2011	13.2176	0	15.7272	-25.9332	83.3209	-3.6808	11.7118	-20.0773	28.2756	-11.5445	5.5213	-19.2408	115.1101	-7.529	3042.0156	0
34.1315	46.5125	-3.6808	-45.0067	-32.793	-0.3346	23.5909	-21.2485	55.8819	-12.883	18.4042	-29.4468	1.8404	-16.2292	5.0193	-21.4158	104.2348	-12.5483	3042.0312	0
23.4236	54.3761	9.8714	-47.6837	13.2176	5.0193	25.9332	-25.5986	62.7417	-18.0696	16.2292	-20.9139	41.9951	-4.5174	8.1982	-27.1044	103.9002	-2.3424	3042.0469	0
23.5909	56.3839	12.883	-33.4622	8.5329	10.0387	27.439	-23.7582	59.7301	-11.8791	16.7311	-5.1866	22.4197	13.2176	4.852	-18.2369	95.702	8.8675	3042.0625	0
13.2176	49.8587	10.0387	-19.91	14.7234	4.0155	20.5793	-16.8984	51.0299	-19.4081	20.412	1.1712	25.7659	15.3926	-1.8404	-16.8984	81.4805	9.3694	3042.0781	0
6.0232	45.0067	9.5367	-11.0425	15.2253	-3.8482	12.0464	-20.7466	40.1547	-15.8946	19.2408	6.0232	17.233	15.8946	-8.1982	-22.2524	68.5976	4.852	3042.0938	0
17.9023	48.6875	15.5599	-16.2292	34.2988	-5.354	10.206	-18.7388	42.497	1.1712	14.5561	7.6963	58.2243	-2.8443	-12.7156	-22.2524	64.2475	6.8598	3042.1094	0
34.1315	54.5434	17.4004	-11.2098	41.6605	7.0271	14.3888	-19.0735	61.9051	-2.3424	19.91	15.3926	63.9129	15.2253	-14.7234	-20.412	66.4225	10.7079	3042.125	0
-0.3346	51.0299	15.3926	0	14.0541	15.7272	9.5367	-27.7736	24.4274	1.3385	16.3965	23.9255	38.1469	21.0812	-22.9216	-24.762	59.7301	14.5561	3042.1406	0
16.0619	45.3413	13.7195	6.6924	47.6837	9.3694	8.3656	-34.968	36.8084	3.3462	17.0657	24.5947	56.2165	28.7775	-28.1083	-26.4352	58.3916	13.5522	3042.1562	0
-3.5135	39.4854	15.2253	-0.8366	33.7968	15.5599	-0.5019	-37.1431	20.9139	-1.3385	15.8946	14.8907	58.057	19.5754	-34.968	-30.9526	59.0608	12.381	3042.1719	0
-13.2176	38.9835	15.2253	-1.0039	12.2137	22.4197	0.6692	-45.6759	9.8714	6.5251	12.0464	11.5445	26.6025	24.2601	-30.4506	-30.7852	58.8935	11.2098	3042.1875	0
-13.7195	36.8084	14.3888	-4.1828	43.3336	19.2408	3.1789	-46.3452	7.6963	4.5174	11.3772	9.704	49.0222	16.2292	-20.2446	-25.5986	53.0376	12.0464	3042.2031	0
-1.5058	30.2833	9.8714	-16.3965	45.8433	14.8907	9.3694	-52.8703	19.2408	-3.5135	10.206	-3.6808	18.0696	21.2485	6.6924	-28.7775	49.3568	11.7118	3042.2188	0
-8.0309	26.1005	7.6963	-16.3965	13.3849	22.9216	12.7156	-51.8665	11.0425	-4.852	11.7118	-8.5329	-14.0541	14.7234	25.4313	-28.9448	45.8433	10.206	3042.2344	0
-4.3501	22.4197	7.6963	-10.8752	7.1944	36.1392	15.8946	-50.1933	14.3888	-4.6847	14.5561	-9.3694	-17.735	21.7504	30.4506	-25.4313	41.4932	10.3733	3042.25	0
-19.2408	-25.4313	-10.5406	4.0155	-1.5058	-26.6025	-14.5561	5.0193	-19.7427	-26.1005	-13.0503	7.6963	6.6924	-17.735	-12.7156	-13.8868	-26.6025	-17.5677	2674.6719	0
-20.7466	-24.4274	-9.704	4.3501	-2.8443	-26.2678	-13.7195	5.5213	-20.0773	-26.4352	-12.2137	8.1982	8.8675	-21.0812	-11.0425	-14.0541	-24.9294	-16.5638	2674.6875	0
-21.4158	-23.0889	-10.0387	5.0193	-0.5019	-25.9332	-14.3888	6.3578	-22.7543	-23.2562	-11.7118	8.1982	11.0425	-21.7504	-10.206	-13.5522	-24.4274	-15.7272	2674.7031	0
-17.0657	-22.587	-9.5367	4.6847	1.8404	-25.9332	-13.0503	7.0271	-19.4081	-21.9178	-11.2098	8.0309	14.7234	-18.0696	-12.5483	-14.2214	-22.587	-15.5599	2674.7188	0
-18.9062	-21.2485	-9.3694	3.8482	-3.0116	-24.762	-13.7195	7.3617	-19.5754	-22.7543	-10.206	6.8598	8.3656	-18.2369	-10.206	-14.0541	-23.5909	-14.3888	2674.7344	0
-20.412	-21.0812	-9.2021	4.6847	-2.3424	-24.5947	-12.381	7.1944	-23.0889	-21.0812	-9.704	7.8636	12.5483	-21.2485	-8.8675	-14.5561	-22.7543	-14.0541	2674.75	0
-20.0773	-20.0773	-8.5329	6.0232	0.3346	-24.0928	-13.0503	8.7002	-22.4197	-17.9023	-9.8714	7.529	12.883	-20.5793	-8.8675	-11.5445	-21.7504	-13.0503	2674.7656	0
-23.5909	-20.412	-8.3656	3.0116	-1.3385	-24.762	-13.3849	6.3578	-27.2717	-21.7504	-9.704	9.3694	17.9023	-23.0889	-11.0425	-16.8984	-22.2524	-13.2176	2674.7812	0
-19.4081	-20.5793	-7.529	2.3424	-1.8404	-24.5947	-13.0503	5.5213	-22.9216	-18.5715	-9.8714	6.1905	17.4004	-25.0967	-11.0425	-15.2253	-22.4197	-12.5483	2674.7969	0
-21.2485	-20.2446	-7.3617	2.3424	-2.677	-23.9255	-12.883	5.1866	-25.4313	-16.8984	-9.3694	5.1866	15.058	-23.7582	-10.7079	-14.8907	-22.0851	-12.381	2674.8125	0
-18.7388	-19.0735	-7.6963	1.8404	0.3346	-23.2562	-13.2176	6.3578	-22.7543	-16.7311	-9.3694	5.1866	19.4081	-21.7504	-12.7156	-14.7234	-21.5831	-11.7118	2674.8281	0
-17.4004	-19.5754	-7.3617	1.5058	-9.0348	-22.4197	-13.5522	6.0232	-23.2562	-15.2253	-8.8675	4.5174	11.7118	-24.4274	-11.5445	-14.7234	-20.9139	-11.3772	2674.8438	0
-18.9062	-18.5715	-7.6963	2.5097	-5.0193	-21.2485	-13.0503	5.6886	-24.2601	-14.7234	-9.3694	5.6886	19.5754	-27.7736	-10.8752	-14.5561	-20.7466	-10.206	2674.8594	0
-16.0619	-18.0696	-7.6963	3.1789	-2.0077	-22.2524	-14.2214	6.5251	-21.4158	-14.5561	-8.5329	5.8559	20.0773	-24.0928	-13.3849	-14.5561	-20.9139	-10.206	2674.875	0
-17.5677	-18.4042	-7.1944	1.6731	-7.0271	-20.9139	-14.3888	6.0232	-22.587	-15.2253	-9.0348	5.354	18.2369	-29.2794	-11.2098	-14.0541	-20.2446	-9.8714	2674.8906	0
-16.5638	-17.735	-7.8636	1.3385	-2.5097	-22.0851	-14.0541	4.6847	-21.7504	-14.5561	-8.7002	4.1828	20.0773	-26.7698	-12.5483	-14.7234	-17.9023	-10.7079	2674.9062	0
-16.2292	-16.5638	-7.0271	0.3346	-3.0116	-21.7504	-12.5483	5.0193	-22.4197	-12.2137	-8.5329	3.6808	20.2446	-25.7659	-11.5445	-15.2253	-16.2292	-10.7079	2674.9219	0
-16.3965	-15.8946	-6.6924	-1.3385	-12.883	-19.0735	-13.0503	4.6847	-23.4236	-11.8791	-8.3656	3.3462	14.2214	-29.7814	-10.206	-14.5561	-14.2214	-11.5445	2674.9375	0
-13.8868	-15.3926	-6.6924	-0.6692	-7.0271	-19.4081	-13.0503	5.354	-22.2524	-10.206	-7.8636	3.6808	17.9023	-27.7736	-10.206	-14.0541	-13.3849	-12.381	2674.9531	0
-17.5677	-14.8907	-6.3578	-1.1712	-2.0077	-19.7427	-12.5483	4.3501	-26.9371	-9.2021	-7.0271	3.1789	22.0851	-27.1044	-11.0425	-13.8868	-11.5445	-12.7156	2674.9688	0
-18.0696	-14.0541	-6.3578	-1.1712	-5.6886	-19.0735	-12.2137	4.5174	-27.6063	-9.3694	-6.6924	4.0155	20.5793	-25.264	-14.7234	-13.0503	-9.0348	-13.3849	2674.9844	0
-15.2253	-13.3849	-6.0232	-1.5058	-11.5445	-17.5677	-12.0464	4.5174	-26.6025	-7.0271	-6.5251	4.0155	15.5599	-27.2717	-12.2137	-12.7156	-8.7002	-13.3849	2675	0
-17.9023	-12.7156	-6.0232	-1.3385	-2.3424	-18.4042	-11.5445	4.6847	-29.4468	-6.3578	-6.0232	3.8482	22.0851	-26.6025	-11.0425	-12.0464	-8.8675	-13.2176	2675.0156	0
-11.2098	-12.5483	-6.1905	-2.175	-2.5097	-18.9062	-10.7079	3.3462	-23.0889	-6.1905	-6.0232	3.1789	23.4236	-28.4429	-11.7118	-12.0464	-8.7002	-13.7195	2675.0312	0
-13.2176	-13.0503	-5.6886	-1.8404	-8.1982	-18.2369	-10.206	2.677	-24.2601	-7.1944	-5.5213	3.1789	17.233	-29.7814	-9.704	-11.7118	-7.6963	-13.7195	2675.0469	0
-17.233	-12.381	-5.354	-3.0116	-6.8598	-17.5677	-10.3733	2.175	-28.9448	-6.1905	-5.8559	3.0116	19.91	-29.7814	-10.7079	-12.0464	-6.8598	-12.883	2675.0625	0
-13.8868	-11.3772	-5.1866	-2.677	-2.677	-18.0696	-10.206	3.0116	-26.4352	-4.5174	-5.354	3.1789	22.0851	-27.941	-10.5406	-11.5445	-7.8636	-12.0464	2675.0781	0
-13.5522	-11.0425	-5.1866	-1.8404	-7.0271	-16.8984	-9.8714	3.3462	-27.7736	-3.5135	-4.852	4.5174	22.2524	-27.941	-12.883	-11.8791	-7.1944	-11.7118	2675.0938	0
-14.2214	-10.8752	-5.5213	-2.3424	-11.8791	-15.8946	-10.3733	3.1789	-29.7814	-2.0077	-4.5174	3.3462	13.8868	-25.7659	-10.7079	-12.381	-5.5213	-12.2137	2675.1094	0
-9.5367	-10.7079	-5.0193	-2.8443	-7.3617	-15.7272	-10.206	2.175	-25.7659	-0.8366	-4.852	3.3462	17.4004	-25.264	-11.2098	-12.0464	-5.8559	-11.5445	2675.125	0
-14.7234	-9.8714	-4.852	-1.6731	-2.8443	-15.8946	-9.8714	3.8482	-32.4584	0.6692	-6.0232	6.6924	22.9216	-24.4274	-11.8791	-11.3772	-5.354	-11.3772	2675.1406	0
-14.3888	-9.3694	-5.8559	-3.5135	-8.3656	-15.3926	-10.5406	2.3424	-29.6141	-0.6692	-4.852	2.0077	16.5638	-27.439	-10.206	-10.8752	-6.0232	-11.8791	2675.1562	0
-9.5367	-10.3733	-5.354	-3.3462	-5.354	-15.058	-10.7079	2.8443	-28.2756	-1.5058	-4.1828	5.354	20.7466	-24.2601	-10.3733	-14.3888	-6.0232	-10.7079	2675.1719	0
-15.2253	-10.3733	-4.6847	-2.677	-4.5174	-15.2253	-10.8752	3.1789	-32.9603	0.1673	-3.5135	3.3462	20.9139	-26.4352	-10.8752	-11.0425	-5.6886	-11.2098	2675.1875	0
-11.3772	-10.7079	-4.5174	-3.0116	-7.1944	-14.3888	-11.3772	3.3462	-28.6102	-0.6692	-4.6847	4.3501	19.4081	-24.762	-12.883	-11.3772	-6.3578	-11.0425	2675.2031	0
-11.8791	-10.0387	-4.852	-3.6808	-8.3656	-15.2253	-10.3733	2.5097	-31.2872	1.6731	-2.8443	2.0077	16.8984	-25.7659	-10.7079	-11.8791	-8.0309	-9.704	2675.2188	0
-12.7156	-10.206	-4.5174	-2.677	-4.3501	-14.5561	-10.5406	2.3424	-31.6218	2.175	-3.8482	3.1789	22.0851	-27.1044	-9.8714	-12.2137	-6.6924	-9.3694	2675.2344	0
-18.0696	-10.3733	-4.5174	-2.677	-10.7079	-13.7195	-10.0387	2.175	-36.6411	1.0039	-4.1828	4.1828	16.0619	-24.4274	-12.0464	-11.8791	-7.529	-9.3694	2675.25	0
-10.5406	-9.8714	-4.6847	-1.8404	-10.3733	-13.8868	-10.5406	2.8443	-29.1121	1.5058	-5.354	6.0232	13.7195	-25.264	-9.704	-10.7079	-7.3617	-9.704	2675.2656	0
-11.7118	-9.704	-4.3501	-3.1789	-10.3733	-13.5522	-10.3733	1.8404	-31.2872	2.3424	-4.0155	4.0155	14.3888	-25.4313	-10.8752	-10.5406	-6.8598	-9.704	2675.2812	0
-12.5483	-8.7002	-4.6847	-2.677	-4.1828	-14.2214	-10.206	2.8443	-31.9564	2.0077	-3.6808	5.0193	19.91	-25.4313	-10.5406	-9.704	-5.354	-9.8714	2675.2969	0
-8.8675	-8.3656	-4.6847	-3.5135	-9.2021	-12.381	-9.8714	2.0077	-27.439	1.8404	-3.3462	3.5135	15.7272	-23.9255	-10.8752	-10.3733	-4.1828	-10.5406	2675.3125	0
-10.5406	-7.8636	-4.852	-3.0116	-5.0193	-12.0464	-10.3733	2.8443	-30.6179	2.677	-4.6847	6.3578	17.9023	-22.9216	-9.5367	-10.0387	-2.175	-11.2098	2675.3281	0
-11.3772	-7.529	-4.6847	-3.5135	-6.8598	-11.0425	-9.5367	2.8443	-30.9526	2.175	-3.6808	5.354	17.735	-23.7582	-9.5367	-9.0348	-1.1712	-11.8791	2675.3438	0
-8.7002	-7.6963	-4.6847	-3.3462	-6.6924	-10.5406	-9.704	2.677	-28.1083	1.5058	-3.1789	5.354	16.3965	-19.7427	-11.8791	-9.0348	0.8366	-12.0464	2675.3594	0
-12.7156	-7.0271	-4.3501	-2.3424	-7.3617	-10.206	-9.5367	2.8443	-34.4661	3.8482	-0.6692	4.852	14.0541	-21.2485	-8.3656	-8.7002	-0.5019	-12.7156	2675.375	0
-8.3656	-7.1944	-4.5174	-2.5097	-6.6924	-8.8675	-10.5406	3.0116	-29.4468	3.0116	-2.677	6.5251	15.8946	-20.7466	-9.5367	-8.7002	0.5019	-13.0503	2675.3906	0
-5.6886	-7.0271	-4.0155	-3.0116	-3.8482	-9.704	-9.5367	2.8443	-27.1044	3.5135	-2.677	6.5251	19.91	-22.4197	-10.0387	-7.6963	2.677	-13.8868	2675.4062	0
-9.3694	-6.6924	-4.0155	-2.8443	-8.3656	-9.0348	-9.5367	3.0116	-31.7891	4.852	-0.8366	4.852	13.8868	-20.9139	-9.704	-7.1944	1.5058	-14.0541	2675.4219	0
-6.0232	-6.3578	-4.6847	-2.5097	-4.852	-9.3694	-9.704	2.5097	-26.7698	4.6847	-2.8443	5.354	17.4004	-21.2485	-10.0387	-7.529	1.5058	-13.5522	2675.4375	0
-5.6886	-5.8559	-4.5174	-1.3385	-1.6731	-10.0387	-8.8675	3.0116	-26.2678	4.6847	-2.5097	6.6924	19.0735	-20.9139	-8.3656	-7.3617	1.5058	-12.7156	2675.4531	0
-6.1905	-4.6847	-4.3501	-1.3385	-5.354	-9.0348	-9.3694	3.3462	-25.264	3.0116	0.5019	5.1866	16.0619	-19.5754	-9.2021	-7.6963	1.1712	-11.8791	2675.4688	0
-2.8443	-5.0193	-4.0155	-0.8366	-3.5135	-7.529	-8.7002	4.0155	-22.9216	4.1828	-1.6731	7.6963	19.7427	-22.587	-6.0232	-6.8598	1.8404	-11.0425	2675.4844	0
-2.175	-5.1866	-3.6808	-1.0039	0.6692	-9.704	-8.5329	3.6808	-23.4236	5.1866	-1.0039	7.1944	19.91	-18.5715	-7.6963	-7.529	0.5019	-10.5406	2675.5	0
-10.8752	-4.6847	-3.8482	-0.8366	-3.5135	-8.7002	-8.8675	4.0155	-29.7814	3.3462	-2.0077	8.1982	16.7311	-18.7388	-7.1944	-7.8636	0.1673	-10.3733	2675.5156	0
0	-4.0155	-4.0155	0	-1.3385	-7.1944	-9.3694	5.0193	-18.9062	6.6924	-2.3424	6.5251	18.2369	-19.2408	-7.1944	-4.6847	0.5019	-10.0387	2675.5312	0
-5.0193	-5.5213	-4.1828	-1.8404	-3.1789	-6.8598	-9.704	5.1866	-27.6063	2.5097	-0.6692	9.2021	18.4042	-15.7272	-7.3617	-9.8714	0.1673	-9.5367	2675.5469	0
-10.7079	-4.5174	-3.6808	-2.5097	-2.0077	-8.1982	-9.704	4.3501	-29.4468	3.6808	-2.3424	6.6924	15.2253	-16.7311	-7.6963	-6.3578	0.3346	-8.8675	2675.5625	0
-0.5019	-4.5174	-4.5174	-0.8366	0.3346	-6.8598	-9.2021	4.5174	-21.2485	5.6886	-3.1789	8.3656	21.0812	-16.7311	-9.2021	-6.3578	-1.0039	-8.7002	2675.5781	0
-4.1828	-4.6847	-4.6847	-2.3424	0.3346	-8.5329	-9.2021	3.6808	-23.9255	5.0193	-3.1789	6.1905	18.7388	-19.4081	-6.8598	-6.1905	-3.0116	-8.3656	2675.5938	0
-4.0155	-4.0155	-5.0193	-3.1789	-1.8404	-8.0309	-9.3694	4.1828	-21.4158	3.1789	-3.1789	5.1866	14.0541	-16.3965	-6.8598	-5.8559	-3.1789	-8.3656	2675.6094	0
-1.1712	-4.6847	-5.0193	-3.3462	-2.677	-7.1944	-10.7079	4.3501	-20.412	4.3501	-2.3424	4.1828	11.8791	-14.5561	-7.8636	-5.6886	-3.3462	-7.8636	2675.625	0
-3.0116	-5.1866	-5.354	-2.175	-0.3346	-8.1982	-10.5406	3.8482	-21.7504	4.1828	-3.5135	5.354	15.5599	-18.2369	-6.3578	-6.1905	-2.8443	-8.1982	2675.6406	0
-4.852	-4.6847	-5.1866	-1.6731	-0.8366	-6.6924	-10.5406	4.3501	-22.4197	3.3462	-4.3501	7.0271	16.3965	-17.233	-6.8598	-6.0232	-2.5097	-8.0309	2675.6562	0
-29.7814	-7.8636	-5.5213	6.6924	-22.9216	1.5058	-17.4004	15.3926	-24.4274	-23.2562	20.5793	-9.3694	-0.8366	-15.3926	-12.0464	4.852	14.3888	3.8482	1696.5312	0
-37.3104	-7.1944	-3.8482	3.6808	-21.2485	-0.5019	-16.5638	17.0657	-39.1508	-14.7234	3.8482	5.354	-25.5986	9.704	-10.3733	5.0193	13.8868	5.5213	1696.5469	0
-8.1982	-14.7234	-4.6847	7.1944	-44.3375	7.0271	-15.5599	21.2485	-16.0619	-14.7234	7.6963	2.677	-21.2485	-5.6886	-16.8984	12.2137	9.704	7.6963	1696.5625	0
-15.2253	-10.7079	-5.5213	4.3501	-20.7466	1.1712	-15.7272	15.8946	-17.5677	-16.3965	13.0503	-6.1905	-6.8598	-4.0155	-12.5483	4.0155	10.0387	6.5251	1696.5781	0
-22.7543	-10.7079	-5.0193	9.2021	-8.7002	0.1673	-16.2292	22.2524	-9.5367	-27.941	4.6847	3.5135	-3.8482	0.3346	-12.5483	13.5522	10.5406	8.3656	1696.5938	0
-8.0309	-21.2485	-4.1828	7.8636	-29.7814	2.8443	-14.8907	17.233	-18.5715	-15.7272	8.5329	0.1673	-17.5677	0.5019	-15.058	7.529	6.1905	8.3656	1696.6094	0
-10.206	-11.0425	-3.6808	6.1905	-36.1392	5.6886	-15.3926	18.2369	2.5097	-33.4622	13.7195	-1.5058	-31.4545	12.2137	-8.1982	-0.1673	9.0348	9.704	1696.625	0
-52.5357	-10.7079	-4.0155	7.1944	-49.1895	2.0077	-15.5599	18.0696	-47.5164	-20.0773	8.7002	-1.1712	-25.5986	-12.0464	-11.5445	4.5174	7.8636	9.2021	1696.6406	0
-28.2756	-23.4236	-3.5135	10.206	-41.3259	1.1712	-14.7234	18.2369	-38.9835	-21.0812	13.2176	1.8404	-38.3143	12.2137	-15.3926	4.852	5.5213	10.5406	1696.6562	0
-14.2214	-17.9023	-2.5097	5.354	-35.3026	-3.5135	-15.7272	19.0735	-10.0387	-19.4081	4.5174	-4.3501	-27.439	-1.6731	-15.7272	9.3694	3.8482	9.8714	1696.6719	0
-5.354	-15.3926	-3.1789	6.3578	-93.5269	11.7118	-12.883	19.91	-22.7543	-3.8482	20.412	-11.3772	-67.5937	-2.8443	-15.7272	11.3772	8.7002	10.0387	1696.6875	0
-15.5599	-18.5715	-5.0193	4.5174	11.8791	-7.1944	-15.8946	18.2369	-20.5793	-18.4042	2.3424	2.0077	1.5058	15.7272	-14.5561	4.3501	5.8559	10.0387	1696.7031	0
-18.4042	-16.7311	-3.6808	7.3617	-28.2756	-0.5019	-13.2176	17.4004	-24.2601	-16.2292	9.0348	0	-28.7775	12.2137	-17.5677	9.5367	6.8598	9.5367	1696.7188	0
-22.587	-12.2137	-4.1828	3.0116	-55.0454	5.8559	-13.8868	16.0619	-14.3888	-25.0967	3.8482	-0.3346	-32.1237	-5.354	-13.8868	4.3501	7.6963	9.704	1696.7344	0
-17.4004	-15.3926	-3.3462	3.3462	-12.5483	-0.6692	-13.3849	14.3888	-9.8714	-24.5947	8.8675	-7.1944	-23.9255	25.5986	-17.233	3.3462	8.3656	9.3694	1696.75	0
-37.4777	-17.233	-3.3462	2.8443	-55.7146	0.3346	-13.2176	10.5406	-43.3336	-16.8984	19.7427	-14.7234	-60.0647	23.0889	-24.4274	3.3462	7.0271	7.8636	1696.7656	0
-15.2253	-13.5522	-3.0116	4.852	-21.4158	1.6731	-12.0464	16.0619	-11.2098	-24.2601	13.3849	-4.852	-29.2794	20.2446	-13.0503	6.3578	10.7079	7.3617	1696.7812	0
-18.2369	-11.7118	-3.8482	4.6847	-43.1663	7.3617	-11.5445	18.0696	-8.1982	-23.0889	10.206	-8.0309	-31.1199	6.3578	-14.3888	9.8714	14.0541	8.8675	1696.7969	0
-20.2446	-12.2137	-3.8482	3.0116	-38.1469	10.5406	-10.5406	21.2485	-18.9062	-14.8907	5.5213	-5.0193	-15.5599	2.5097	-13.2176	9.3694	16.7311	7.8636	1696.8125	0
-20.412	-10.5406	-2.175	5.5213	-42.1624	6.8598	-9.704	15.3926	-16.0619	-24.2601	18.0696	-5.354	-25.5986	0.8366	-10.206	5.354	15.8946	8.0309	1696.8281	0
-3.5135	-12.5483	-2.175	1.5058	-47.5164	0.8366	-9.8714	14.0541	-4.852	-16.5638	1.3385	3.3462	-41.8278	11.5445	-19.7427	7.529	15.8946	5.8559	1696.8438	0
-15.2253	-5.5213	-1.6731	4.852	-10.0387	2.175	-8.7002	14.7234	-12.2137	-11.5445	8.5329	-2.3424	-5.8559	19.4081	-26.2678	10.8752	18.0696	8.3656	1696.8594	0
-15.3926	-8.3656	-3.0116	7.0271	-12.7156	7.1944	-9.0348	17.9023	9.8714	-37.645	12.883	-4.852	-4.3501	13.3849	-14.0541	8.3656	19.91	7.8636	1696.875	0
-17.233	-4.6847	-2.3424	5.0193	-49.0222	5.1866	-6.5251	18.0696	-15.8946	-9.3694	9.8714	-3.8482	-28.4429	4.6847	-18.7388	10.206	18.7388	8.8675	1696.8906	0
-19.4081	-1.1712	-2.3424	6.5251	-18.4042	10.0387	-7.0271	16.2292	-11.8791	-12.5483	6.1905	1.8404	-6.0232	10.7079	-11.3772	7.529	18.5715	8.1982	1696.9062	0
-2.0077	-1.5058	-2.8443	5.8559	-32.291	11.8791	-5.0193	16.8984	10.206	-19.91	14.3888	-5.1866	7.1944	-6.3578	-16.2292	6.8598	20.9139	8.8675	1696.9219	0
-4.1828	-5.6886	-1.8404	3.3462	-24.5947	0.8366	-7.3617	13.2176	-1.1712	-7.529	6.1905	-5.8559	-37.4777	30.7852	-16.5638	5.354	20.412	9.0348	1696.9375	0
-34.1315	4.0155	-1.5058	7.1944	-66.9245	16.0619	-3.5135	22.2524	-20.0773	-18.4042	18.4042	-4.3501	-32.291	-0.3346	-14.3888	14.8907	22.9216	10.5406	1696.9531	0
-12.883	2.175	-2.3424	5.0193	-21.5831	1.1712	-5.6886	15.3926	-11.8791	-2.0077	2.8443	3.0116	-21.2485	17.5677	-13.3849	6.3578	21.4158	8.5329	1696.9688	0
-25.7659	6.1905	-1.5058	2.8443	-62.909	11.3772	-4.3501	21.2485	-21.4158	-11.0425	8.7002	5.5213	-30.9526	8.5329	-19.2408	7.0271	23.7582	10.0387	1696.9844	0
-22.7543	7.6963	-1.8404	1.6731	-8.3656	2.3424	-6.0232	12.883	-8.8675	-9.2021	3.1789	-0.3346	-8.3656	16.3965	-11.3772	4.1828	23.7582	9.8714	1697	0
-20.0773	4.3501	-3.5135	4.1828	-87.671	15.5599	-5.0193	21.4158	-22.587	-6.1905	14.0541	-0.3346	-68.5976	18.0696	-17.9023	12.7156	25.4313	10.7079	1697.0156	0
-20.0773	5.6886	-3.8482	-0.1673	-17.0657	9.8714	-5.0193	19.7427	-14.3888	-13.5522	26.2678	-16.7311	2.0077	7.3617	-11.2098	9.3694	20.412	9.3694	1697.0312	0
-47.1817	11.8791	-4.0155	1.0039	-43.8355	14.7234	-4.1828	17.0657	-32.6257	-13.8868	14.0541	-5.8559	-28.1083	15.5599	-12.0464	8.3656	20.0773	10.206	1697.0469	0
-48.5202	14.5561	-3.6808	5.0193	-11.2098	9.5367	-4.852	19.4081	-35.1353	-11.8791	-2.8443	17.233	4.1828	11.5445	-16.8984	14.0541	22.0851	11.8791	1697.0625	0
-20.2446	11.5445	-4.852	-0.3346	-53.0376	14.3888	-5.6886	12.883	-12.883	-7.1944	11.7118	-5.5213	-21.2485	-2.175	-13.0503	5.0193	23.7582	11.2098	1697.0781	0
-9.5367	10.0387	-6.3578	4.1828	-21.2485	2.3424	-5.8559	20.2446	1.5058	-15.058	21.9178	-10.0387	-7.3617	0.5019	-10.5406	12.883	23.7582	10.8752	1697.0938	0
-32.6257	14.5561	-6.0232	-0.3346	-24.5947	6.6924	-3.3462	16.2292	-27.6063	-1.8404	-5.6886	10.7079	8.1982	-11.5445	-8.1982	6.5251	23.5909	11.2098	1697.1094	0
-0.5019	14.2214	-5.8559	-0.1673	-70.9399	13.5522	-3.1789	17.233	-8.1982	2.8443	13.0503	0	-49.1895	3.3462	-6.3578	8.8675	25.5986	11.0425	1697.125	0
-33.2949	18.9062	-7.529	-1.0039	23.0889	5.6886	-4.6847	16.0619	-12.883	-14.7234	14.3888	-9.704	51.0299	-11.3772	-12.2137	12.7156	27.2717	10.206	1697.1406	0
-15.2253	18.4042	-9.3694	-1.3385	-38.9835	7.3617	-4.5174	20.2446	-15.5599	0.6692	9.2021	-1.8404	-36.8084	14.5561	-3.6808	10.0387	26.7698	8.8675	1697.1562	0
-7.1944	16.0619	-8.0309	-3.3462	-30.4506	4.1828	-4.3501	15.8946	2.5097	-13.7195	11.8791	-3.1789	-16.7311	-1.8404	-7.0271	10.8752	26.6025	8.7002	1697.1719	0
-16.5638	24.762	-9.8714	-4.0155	-35.8046	0.5019	-4.3501	23.2562	5.8559	-21.2485	4.852	4.852	-15.8946	-9.2021	-5.1866	13.8868	29.6141	7.529	1697.1875	0
-18.7388	31.6218	-10.5406	-6.0232	-24.4274	2.3424	-2.8443	11.3772	-6.5251	4.0155	11.5445	-12.7156	-9.8714	-4.6847	-5.1866	6.1905	31.1199	8.0309	1697.2031	0
-9.3694	30.6179	-12.883	-3.1789	-35.9719	10.7079	-4.0155	15.7272	0.6692	-2.677	9.704	-2.5097	2.175	-19.4081	-5.8559	9.5367	28.6102	8.5329	1697.2188	0
-13.0503	26.9371	-11.2098	-8.7002	2.5097	2.3424	-3.6808	15.8946	6.0232	-16.8984	12.0464	-7.1944	8.8675	1.0039	-8.0309	15.2253	28.7775	7.8636	1697.2344	0
-19.7427	28.4429	-9.704	-9.704	-29.6141	7.1944	-3.3462	13.0503	-2.5097	-9.0348	3.8482	-3.0116	-12.381	-8.0309	-2.677	10.3733	30.4506	8.5329	1697.25	0
-23.2562	36.3065	-15.058	-9.704	-1.3385	9.704	-2.175	15.2253	-2.677	-19.4081	9.5367	0.8366	22.9216	-14.0541	4.5174	8.0309	29.9487	8.8675	1697.2656	0
-11.2098	40.4893	-14.8907	-16.7311	-14.8907	7.0271	-1.1712	15.058	-25.0967	16.0619	5.8559	0.8366	-5.5213	2.5097	-4.5174	13.5522	28.6102	10.7079	1697.2812	0
-18.0696	35.3026	-12.2137	-16.7311	-17.0657	7.1944	-1.3385	15.7272	-15.5599	-0.8366	9.2021	-4.5174	1.6731	-6.6924	-4.0155	13.5522	26.4352	11.2098	1697.2969	0
-37.3104	35.6373	-12.883	-7.1944	-7.3617	4.1828	-1.8404	18.2369	-19.4081	-5.0193	5.5213	-2.8443	1.5058	-0.1673	-4.1828	16.0619	27.2717	11.7118	1697.3125	0
-31.1199	39.1508	-11.3772	-16.8984	-56.7185	18.7388	0.8366	12.883	-26.2678	11.2098	-0.6692	-4.5174	-25.4313	-12.0464	0	13.2176	29.4468	12.0464	1697.3281	0
-51.5318	47.3491	-12.0464	-22.2524	-15.2253	9.2021	1.3385	16.2292	-47.1817	1.0039	2.5097	5.1866	3.6808	-3.3462	0	11.2098	31.7891	14.5561	1697.3438	0
-10.5406	35.47	-10.206	-9.8714	-37.4777	9.704	0	17.5677	-0.6692	2.5097	1.0039	2.0077	0	-26.4352	5.8559	10.3733	27.439	13.0503	1697.3594	0
-15.3926	36.1392	-5.8559	-17.4004	-18.9062	4.852	-1.0039	14.2214	-11.7118	11.7118	12.2137	-14.7234	-1.6731	-9.5367	-3.0116	13.3849	28.2756	14.2214	1697.375	0
-15.5599	51.1972	-6.6924	-24.762	-20.5793	10.5406	1.5058	16.8984	-16.0619	18.5715	18.4042	-16.7311	-5.6886	1.1712	-1.8404	14.7234	33.2949	16.2292	1697.3906	0
-22.9216	37.1431	1.6731	-12.381	-12.0464	8.7002	1.1712	19.91	0.1673	-4.3501	11.0425	-3.3462	16.2292	-18.0696	9.3694	10.206	32.1237	15.8946	1697.4062	0
-19.2408	36.4738	-10.8752	-17.735	-50.1933	11.5445	1.8404	11.2098	-9.5367	-2.3424	6.5251	-6.0232	-22.4197	-11.2098	-4.3501	12.381	29.7814	12.2137	1697.4219	0
-14.3888	48.3529	-8.7002	-27.1044	-38.4816	3.3462	-0.3346	13.8868	-9.8714	11.7118	10.5406	-14.2214	-40.322	9.2021	-2.0077	11.5445	33.7968	14.0541	1697.4375	0
2.0077	52.0338	-6.3578	-34.1315	-5.0193	3.0116	1.3385	11.3772	33.9642	-8.1982	-1.6731	-10.5406	9.8714	-8.3656	-3.5135	12.7156	31.9564	14.2214	1697.4531	0
-6.3578	52.5357	-13.2176	-40.1547	-42.6643	9.3694	2.175	8.8675	-16.2292	29.1121	5.1866	-25.264	-16.7311	-17.735	0.1673	12.0464	35.47	12.2137	1697.4688	0
-8.5329	52.3684	-13.7195	-46.0106	19.91	5.354	3.0116	7.8636	8.1982	-1.3385	23.7582	-46.5125	30.9526	-5.354	-3.1789	13.7195	32.6257	10.0387	1697.4844	0
0.6692	64.9167	1.3385	-45.0067	29.7814	2.5097	4.852	13.2176	12.0464	17.9023	19.2408	-27.2717	30.2833	3.8482	1.0039	15.2253	39.6527	14.8907	1697.5	0
-19.7427	57.7223	3.6808	-40.1547	-25.5986	4.1828	3.3462	11.2098	-18.0696	36.8084	32.9603	-50.1933	-10.8752	-10.5406	-1.8404	16.3965	40.4893	12.5483	1697.5156	0
-2.0077	0	-0.6692	0.6692	5.8559	-2.5097	-1.5058	0.8366	-2.175	0	-3.0116	3.1789	1.1712	2.3424	-2.175	1.3385	6.8598	-5.8559	3882.5312	0
2.8443	0.6692	-0.3346	-0.5019	-6.5251	-0.8366	-1.6731	0.6692	3.8482	-0.1673	-0.3346	-0.6692	-10.0387	2.175	-0.8366	0.3346	7.529	-6.1905	3882.5469	0
0	1.8404	-0.6692	0.1673	-10.3733	-2.0077	-0.8366	-1.0039	-1.1712	2.3424	-0.5019	0.6692	-11.8791	-1.3385	-0.5019	-0.5019	6.8598	-6.1905	3882.5625	0
-0.8366	1.5058	-1.1712	1.8404	9.0348	-2.0077	-1.1712	1.3385	-1.3385	1.1712	-0.6692	2.175	5.6886	2.0077	-0.8366	0.3346	7.3617	-5.5213	3882.5781	0
-9.704	1.5058	-0.1673	1.0039	-7.1944	1.5058	-0.5019	0.6692	-9.8714	1.5058	-0.5019	1.5058	-7.8636	3.0116	0.3346	-1.0039	7.0271	-4.5174	3882.5938	0
2.677	1.0039	0.5019	-0.1673	8.8675	-2.3424	-0.6692	1.0039	2.175	3.0116	-1.3385	0.1673	0.3346	7.529	0.5019	-1.5058	6.3578	-4.852	3882.6094	0
3.1789	1.5058	0.1673	0.3346	4.1828	-1.5058	-1.5058	2.175	2.8443	2.8443	-3.3462	2.8443	0.6692	2.8443	0.6692	-0.8366	5.0193	-4.5174	3882.625	0
-8.7002	2.3424	0.6692	1.1712	1.0039	-0.3346	-0.5019	0.8366	-7.3617	3.8482	1.8404	-2.8443	-1.1712	0.3346	1.8404	0	3.6808	-4.5174	3882.6406	0
-5.5213	1.5058	-0.5019	-0.5019	5.6886	0.8366	-0.5019	2.175	-7.1944	-0.6692	0.5019	2.3424	4.1828	7.6963	1.6731	-5.354	2.5097	-4.3501	3882.6562	0
5.354	0.8366	0.1673	-0.6692	14.8907	-1.5058	-1.1712	2.0077	4.852	0.8366	0.3346	-0.3346	13.2176	2.175	-0.8366	-0.3346	2.0077	-3.3462	3882.6719	0
-5.6886	1.5058	-0.3346	-0.3346	-1.6731	-0.5019	-1.6731	1.6731	-5.0193	2.0077	-2.175	0.3346	-3.8482	2.677	0.5019	-1.5058	3.8482	-3.3462	3882.6875	0
1.0039	1.0039	-0.1673	0.1673	-10.7079	0.3346	-1.1712	0.6692	3.0116	-1.0039	0	0	-8.3656	-1.5058	1.1712	-2.175	2.175	-3.0116	3882.7031	0
-1.6731	-0.3346	0	-0.3346	9.2021	-2.0077	-1.6731	1.1712	-2.5097	2.677	-3.1789	0.6692	10.5406	-2.0077	-0.6692	-1.1712	2.8443	-3.0116	3882.7188	0
-6.5251	0.5019	-0.8366	1.0039	13.8868	0	-1.6731	0.8366	-5.8559	1.1712	-0.6692	-0.5019	14.2214	0.5019	2.8443	-4.5174	1.0039	-2.677	3882.7344	0
6.5251	1.3385	-0.8366	0.1673	-3.0116	-0.5019	-2.175	1.1712	8.5329	0.8366	-4.6847	2.5097	-6.3578	3.8482	0.3346	-2.3424	-2.3424	-1.6731	3882.75	0
8.3656	0.1673	0.1673	-0.5019	2.8443	0.6692	-2.3424	0.6692	9.3694	0.6692	-3.8482	2.0077	2.677	1.3385	0.1673	-2.3424	-1.6731	-2.175	3882.7656	0
-7.529	-0.3346	0.3346	0.8366	6.0232	-1.3385	-2.5097	2.3424	-6.8598	-0.1673	-0.8366	1.1712	6.1905	-0.5019	0.5019	-1.6731	0.3346	-1.8404	3882.7812	0
6.3578	-0.1673	-0.3346	0.5019	0.3346	-1.1712	-2.5097	2.5097	6.6924	0.3346	-1.8404	1.1712	4.6847	-4.0155	-2.0077	0.5019	2.0077	-2.8443	3882.7969	0
7.3617	0.6692	-1.0039	1.1712	9.5367	0.3346	-2.3424	0	6.1905	1.5058	-1.5058	2.0077	6.1905	3.5135	-0.1673	-2.0077	2.3424	-3.0116	3882.8125	0
0.8366	0.8366	-1.0039	1.0039	12.7156	-2.5097	-2.677	2.5097	1.0039	0.5019	-3.1789	3.3462	8.8675	1.5058	-0.3346	0	0.8366	-3.5135	3882.8281	0
5.0193	0	-0.3346	1.3385	4.1828	-0.5019	-1.0039	0.3346	4.6847	-0.5019	-2.0077	3.8482	7.0271	-2.5097	0.1673	-1.6731	2.8443	-4.852	3882.8438	0
2.5097	0	0	1.1712	1.3385	-0.1673	-1.6731	0.6692	-0.3346	2.0077	-1.6731	3.6808	-2.5097	4.0155	0.8366	-2.175	3.3462	-4.6847	3882.8594	0
0.5019	0.8366	0.3346	0.3346	-1.5058	-1.0039	-1.6731	0.6692	-2.3424	5.1866	-3.5135	2.677	0	-1.1712	-2.0077	-0.3346	2.5097	-5.1866	3882.875	0
1.6731	0.6692	-1.1712	0.6692	-1.3385	-1.5058	-1.5058	1.1712	2.0077	-1.6731	3.6808	-2.175	-2.3424	0.5019	-1.3385	0	4.852	-5.8559	3882.8906	0
-11.0425	2.0077	-0.5019	-0.8366	6.6924	0	-1.8404	0.3346	-10.0387	0.6692	-0.8366	-0.1673	1.6731	4.0155	0.1673	-0.6692	3.0116	-5.1866	3882.9062	0
4.0155	1.1712	-0.8366	0.1673	-2.175	-2.3424	-1.1712	-0.8366	3.0116	1.1712	-1.8404	2.175	-4.3501	0.1673	-1.0039	-1.3385	4.3501	-5.5213	3882.9219	0
2.0077	-0.6692	-0.3346	1.1712	-2.0077	-1.3385	-1.3385	0.1673	0	5.1866	-3.0116	0	-7.3617	3.8482	-1.3385	0.3346	5.354	-5.8559	3882.9375	0
0.5019	0.8366	-0.3346	1.0039	-0.1673	0.1673	-0.8366	0.6692	2.8443	-0.1673	-1.8404	1.1712	-4.852	4.5174	0.5019	-0.3346	7.529	-4.6847	3882.9531	0
7.3617	0.5019	-1.3385	1.6731	12.2137	-1.6731	-1.5058	0.8366	7.8636	-0.8366	-2.677	3.8482	10.5406	0.1673	1.1712	-2.0077	6.5251	-5.354	3882.9688	0
-3.6808	0.5019	-1.1712	1.0039	2.8443	-0.6692	-1.1712	0.8366	-5.354	1.3385	-0.8366	1.5058	-2.0077	5.0193	0	-1.1712	4.6847	-5.5213	3882.9844	0
1.0039	1.3385	-0.5019	0.6692	9.5367	-1.8404	-1.0039	2.175	0.6692	3.6808	-4.3501	2.5097	7.3617	0.1673	3.0116	-1.6731	5.5213	-5.1866	3883	0
0.6692	1.0039	0	1.1712	-5.8559	-2.3424	-0.3346	0.8366	2.8443	2.8443	1.0039	-3.8482	-10.0387	0.3346	0.1673	1.8404	3.8482	-4.0155	3883.0156	0
0.5019	0.1673	-0.8366	-0.3346	3.1789	0	-1.5058	2.8443	-2.175	-1.5058	-1.6731	4.852	3.1789	4.3501	0	-3.0116	3.0116	-3.6808	3883.0312	0
0.8366	0.8366	0.1673	-0.3346	-13.3849	-1.3385	-2.0077	1.6731	0.5019	2.0077	-0.1673	-0.8366	-16.0619	1.6731	-1.6731	1.0039	3.1789	-3.3462	3883.0469	0
2.677	0.3346	-0.8366	0	2.5097	-2.175	-1.6731	1.5058	2.0077	3.5135	-3.6808	0.3346	-2.677	4.1828	-0.3346	-1.0039	1.5058	-3.5135	3883.0625	0
-3.1789	1.3385	-0.8366	-1.5058	-1.8404	-2.3424	-1.0039	0.8366	-2.0077	2.175	-2.5097	-1.8404	-5.354	2.8443	-0.1673	-1.6731	2.0077	-3.3462	3883.0781	0
-16.3965	1.0039	-0.3346	-0.5019	2.5097	-3.0116	-1.1712	1.3385	-15.2253	2.175	-1.6731	-1.5058	5.0193	-3.8482	-0.1673	-1.3385	0.1673	-2.5097	3883.0938	0
1.6731	-0.6692	-0.8366	0.1673	6.0232	-1.8404	-1.5058	1.1712	3.8482	-2.175	1.6731	-3.0116	2.175	3.3462	0.5019	-2.175	0.5019	-2.5097	3883.1094	0
9.5367	0	-1.0039	0	5.5213	-2.175	-1.8404	2.677	10.3733	0	-2.175	0.3346	1.0039	4.5174	-0.1673	-1.1712	1.5058	-3.1789	3883.125	0
-5.5213	0.8366	-0.6692	-0.6692	9.704	-3.0116	-2.0077	-0.1673	-3.8482	0.1673	-1.8404	-0.5019	8.1982	-0.5019	-0.6692	-2.5097	0.5019	-2.3424	3883.1406	0
8.5329	0.5019	-1.0039	-0.5019	11.2098	-2.0077	-2.5097	2.175	11.7118	-2.175	-3.3462	1.3385	7.0271	3.3462	-1.0039	-0.5019	-0.6692	-2.677	3883.1562	0
-0.3346	0.5019	-0.8366	0.1673	-3.6808	-0.6692	-2.0077	1.8404	0.5019	-2.0077	-2.5097	3.5135	-3.0116	-1.0039	-0.5019	0	1.1712	-3.0116	3883.1719	0
-5.8559	0.5019	-1.0039	1.0039	8.5329	-1.5058	-1.6731	0	-5.354	-1.0039	0.5019	0.5019	7.8636	-0.3346	-0.6692	-1.5058	2.175	-2.8443	3883.1875	0
10.7079	-0.1673	-1.1712	0.1673	7.1944	-1.1712	-1.6731	0.5019	10.3733	-0.5019	-3.3462	3.0116	5.0193	1.3385	-1.3385	-0.1673	3.6808	-3.5135	3883.2031	0
-4.1828	0.5019	-0.6692	0.3346	-9.2021	0.6692	-0.6692	0	-5.1866	1.6731	-2.677	2.175	-7.1944	0	0.3346	-2.3424	3.5135	-4.1828	3883.2188	0
17.233	0.1673	-1.0039	1.3385	9.8714	-2.677	-0.5019	0	15.5599	-0.1673	-3.5135	5.8559	3.5135	4.3501	0.1673	-1.3385	3.3462	-4.3501	3883.2344	0
-6.6924	1.3385	-1.1712	0.8366	-5.354	0.3346	-0.6692	-0.5019	-8.0309	0.8366	-2.175	3.6808	-2.3424	-2.175	0.1673	-1.8404	5.6886	-5.354	3883.25	0
0.1673	0.8366	-0.6692	0.3346	4.1828	-2.175	-1.0039	0.1673	2.5097	-1.5058	-4.0155	3.6808	0.8366	0.5019	1.6731	-1.8404	5.354	-5.5213	3883.2656	0
-3.8482	0.6692	-1.0039	0.1673	6.8598	-1.1712	-0.6692	-1.5058	-2.8443	-0.8366	-1.5058	1.1712	2.5097	2.677	-0.1673	-1.5058	6.5251	-5.8559	3883.2812	0
-0.8366	1.3385	-1.0039	0	6.1905	0.3346	-1.3385	-0.1673	-0.3346	-0.1673	2.8443	-2.8443	11.8791	-5.8559	-0.5019	-0.5019	6.0232	-6.0232	3883.2969	0
-2.8443	0.8366	-1.3385	0.3346	-4.0155	-1.1712	-0.8366	-1.0039	0.3346	-1.8404	-1.1712	-0.3346	-8.7002	3.3462	-2.3424	0.6692	4.6847	-5.5213	3883.3125	0
0.6692	0.6692	-0.5019	-0.6692	-3.0116	-1.6731	-1.1712	0.5019	0.8366	0.8366	-3.0116	1.5058	-3.1789	-1.6731	-0.3346	-0.1673	5.0193	-5.354	3883.3281	0
3.8482	1.0039	-0.6692	0.1673	7.1944	-1.6731	-1.0039	0.1673	4.1828	0.1673	-0.6692	0.6692	5.1866	0.6692	0.3346	-1.5058	5.1866	-5.1866	3883.3438	0
-11.0425	1.0039	-0.5019	0.1673	-7.8636	-2.0077	-0.5019	0.5019	-10.0387	-1.6731	-1.1712	2.5097	-8.0309	0	-1.5058	-0.3346	4.3501	-4.1828	3883.3594	0
-5.5213	0.8366	-0.3346	0.3346	1.5058	-0.8366	-0.3346	0.1673	-6.6924	0.6692	-0.6692	2.0077	1.0039	0	1.0039	-1.5058	4.1828	-4.0155	3883.375	0
-1.1712	1.3385	0.3346	1.1712	-0.3346	-1.3385	-0.5019	-0.6692	0.6692	2.3424	-1.6731	0.3346	-8.8675	5.0193	0.3346	0.6692	4.6847	-4.0155	3883.3906	0
-11.2098	0.3346	-1.1712	0.1673	5.5213	-3.0116	-0.8366	0.8366	-12.883	-0.8366	-1.3385	3.1789	5.8559	1.8404	0	-5.1866	5.8559	-3.3462	3883.4062	0
3.8482	2.0077	-0.6692	-0.1673	-11.3772	-1.3385	0.5019	0.6692	6.1905	-1.3385	-1.0039	1.1712	-13.8868	3.0116	1.1712	-1.8404	3.1789	-3.1789	3883.4219	0
1.0039	0.8366	-1.0039	0.5019	-0.1673	-0.5019	-0.1673	0	2.8443	0	-4.3501	2.8443	-3.3462	4.6847	1.3385	-3.5135	1.5058	-2.5097	3883.4375	0
-12.5483	0.3346	-0.3346	-0.8366	-0.5019	-1.1712	-0.8366	1.1712	-12.381	-0.1673	0.6692	-1.5058	3.0116	-3.5135	-0.8366	0	2.3424	-2.3424	3883.4531	0
-1.0039	1.0039	-0.3346	-0.5019	2.677	-4.0155	-0.5019	1.5058	1.6731	-0.3346	0.1673	-2.3424	-3.6808	3.3462	0.8366	-0.8366	0.8366	-2.175	3883.4688	0
5.1866	0.6692	-0.1673	0.5019	-8.5329	0.5019	-0.3346	1.3385	5.5213	-0.6692	-0.6692	2.0077	-10.8752	5.0193	-2.175	1.0039	0.8366	-1.0039	3883.4844	0
-8.0309	0.1673	-0.8366	0.8366	5.8559	-2.175	-0.8366	0.5019	-7.6963	0.8366	0.5019	-1.5058	6.8598	-1.3385	-0.5019	-1.6731	0.5019	-1.0039	3883.5	0
1.8404	1.0039	0	-0.6692	-6.3578	-2.8443	-0.5019	0.5019	3.5135	0.8366	-1.5058	-0.6692	-9.3694	3.0116	-2.5097	-0.3346	-1.5058	-0.8366	3883.5156	0
-27.439	-15.2253	-6.0232	1.3385	-27.1044	-5.354	0.8366	8.0309	-12.883	-19.4081	-6.8598	-8.1982	-38.6489	0	12.883	2.175	-15.058	-0.3346	738.4844	0
-27.1044	-18.4042	-7.6963	-0.8366	-26.2678	-14.0541	-1.6731	5.6886	-14.3888	-22.2524	-7.3617	-10.0387	-49.1895	-3.3462	13.3849	2.8443	-24.4274	-4.6847	738.5	0
-26.6025	-21.9178	-7.1944	-2.677	-24.4274	-10.7079	-5.1866	6.6924	-16.3965	-23.7582	-8.5329	-9.704	-50.6953	-5.354	12.883	9.5367	-24.4274	-6.0232	738.5156	0
-29.4468	-23.5909	-7.1944	-3.1789	-19.7427	-17.9023	-7.6963	6.1905	-20.7466	-24.5947	-8.1982	-9.8714	-52.8703	-10.5406	16.5638	7.6963	-29.1121	-8.0309	738.5312	0
-32.9603	-26.6025	-7.6963	-4.6847	-17.4004	-34.6334	-11.7118	4.0155	-26.2678	-26.9371	-9.0348	-9.704	-71.1072	-13.2176	14.5561	10.0387	-37.3104	-11.2098	738.5469	0
-33.6295	-27.1044	-8.3656	-6.0232	-13.3849	-33.2949	-15.3926	-1.0039	-27.439	-28.4429	-9.3694	-9.8714	-67.5937	-12.7156	12.381	4.852	-41.1585	-13.8868	738.5625	0
-41.6605	-24.762	-8.0309	-4.3501	-29.1121	-30.4506	-12.883	-1.1712	-33.9642	-27.2717	-9.2021	-8.3656	-75.9593	-13.2176	13.8868	1.6731	-39.9874	-14.2214	738.5781	0
-43.6682	-23.9255	-7.8636	-6.1905	-18.9062	-40.1547	-14.3888	-4.5174	-36.1392	-26.1005	-9.704	-9.704	-96.3712	1.8404	19.91	-3.3462	-40.322	-17.233	738.5938	0
-42.497	-23.2562	-7.6963	-5.5213	-22.9216	-39.9874	-14.3888	-3.3462	-34.2988	-25.9332	-9.0348	-9.704	-99.3828	4.5174	18.4042	-4.1828	-40.322	-16.7311	738.6094	0
-41.1585	-18.4042	-7.529	-3.3462	-11.2098	-40.9912	-15.7272	-1.5058	-32.1237	-23.0889	-6.6924	-8.5329	-87.3364	2.175	17.9023	-2.175	-37.645	-16.5638	738.625	0
-40.6566	-13.8868	-6.1905	-2.5097	-0.1673	-39.8201	-18.0696	1.0039	-29.6141	-20.7466	-4.5174	-8.3656	-76.7958	6.0232	18.5715	-4.852	-30.7852	-16.5638	738.6406	0
-36.3065	-7.6963	-5.0193	2.175	21.9178	-40.9912	-22.0851	4.3501	-25.9332	-16.2292	-0.3346	-4.3501	-49.8587	3.5135	14.3888	-4.852	-21.9178	-15.5599	738.6562	0
-37.8123	-4.3501	-3.1789	3.6808	42.6643	-45.3413	-22.4197	8.8675	-23.9255	-17.233	0.1673	-0.6692	-24.9294	-0.3346	11.3772	-2.3424	-21.0812	-11.7118	738.6719	0
-42.3297	1.8404	-1.6731	7.6963	47.851	-46.6798	-27.1044	14.2214	-16.8984	-18.9062	0.8366	0.5019	-7.529	-9.704	6.8598	-1.3385	-0.1673	-8.3656	738.6875	0
-44.6721	3.1789	-1.1712	10.7079	49.8587	-35.8046	-28.2756	13.2176	-15.5599	-19.91	1.6731	1.8404	3.5135	-7.6963	6.3578	-3.1789	22.9216	-8.0309	738.7031	0
-44.8394	1.1712	-0.3346	14.0541	25.9332	-25.7659	-21.7504	18.4042	-18.4042	-15.3926	1.5058	2.3424	-9.0348	-6.5251	9.8714	2.5097	33.9642	-4.0155	738.7188	0
-49.6914	-1.3385	0.3346	12.883	11.2098	-20.5793	-20.412	21.0812	-30.2833	-12.7156	0.5019	4.6847	2.0077	-13.8868	6.3578	-3.1789	33.7968	-1.0039	738.7344	0
-45.174	-4.6847	-0.5019	12.2137	-2.175	-15.3926	-20.7466	16.0619	-29.7814	-8.7002	-1.0039	1.3385	-9.5367	-13.8868	3.0116	-1.8404	25.9332	0.6692	738.75	0
-22.7543	-12.0464	-1.6731	12.5483	-6.6924	-10.8752	-18.0696	17.9023	-21.2485	-4.5174	-0.1673	2.0077	0	-22.0851	-0.6692	5.0193	15.2253	1.1712	738.7656	0
8.3656	-18.4042	-2.677	10.8752	11.2098	-13.7195	-17.9023	14.5561	-10.0387	5.1866	0.3346	2.677	-1.6731	-10.8752	3.1789	3.5135	-1.3385	-0.6692	738.7812	0
29.1121	-18.7388	-4.3501	8.5329	13.8868	-7.8636	-14.3888	10.8752	5.5213	7.529	-0.8366	2.3424	5.0193	-7.3617	4.852	0	-5.354	-2.175	738.7969	0
44.0028	-21.4158	-5.1866	5.8559	11.0425	-2.175	-11.8791	7.8636	8.8675	15.3926	-2.0077	1.0039	5.0193	-8.7002	7.1944	1.3385	-7.8636	-3.3462	738.8125	0
58.2243	-17.4004	-4.852	5.8559	16.8984	2.175	-7.3617	7.3617	24.0928	20.5793	-2.677	-0.1673	27.7736	-15.058	4.1828	2.175	3.6808	-2.677	738.8281	0
57.3877	-11.8791	-4.852	5.6886	25.5986	5.1866	-8.5329	7.1944	27.2717	23.0889	-3.8482	-0.1673	34.968	-11.3772	6.3578	-0.5019	9.704	-5.1866	738.8438	0
57.555	-2.8443	-5.1866	5.6886	26.4352	-0.6692	-8.1982	8.7002	35.6373	25.0967	-3.6808	-1.8404	27.439	-8.0309	4.5174	2.3424	17.5677	-6.0232	738.8594	0
44.0028	7.8636	-4.6847	5.8559	15.7272	-0.5019	-6.1905	5.1866	32.9603	24.5947	-2.5097	-2.0077	18.0696	-8.8675	5.8559	-0.8366	27.439	-5.5213	738.875	0
25.5986	21.0812	-3.3462	5.0193	9.0348	-0.6692	-4.5174	6.1905	36.3065	18.2369	-3.1789	-3.0116	13.7195	-9.3694	4.1828	1.5058	37.645	-4.852	738.8906	0
18.7388	27.941	-3.8482	2.3424	21.0812	-4.852	-8.5329	7.3617	39.6527	14.7234	-3.5135	-5.6886	21.4158	-9.3694	2.175	0.8366	40.6566	-5.5213	738.9062	0
6.3578	33.6295	-2.175	0.5019	16.0619	-6.6924	-8.3656	6.8598	33.9642	14.3888	-3.6808	-6.3578	11.8791	-7.0271	1.3385	1.6731	46.3452	-6.5251	738.9219	0
4.1828	35.3026	-2.0077	1.1712	12.381	-2.8443	-7.8636	9.0348	32.793	12.7156	-2.3424	-4.5174	14.3888	-7.0271	-2.0077	5.354	50.528	-7.0271	738.9375	0
-8.1982	40.322	-0.3346	2.5097	15.8946	-4.0155	-9.3694	8.8675	29.9487	10.0387	-2.677	-3.0116	18.7388	-8.8675	-1.5058	3.0116	49.8587	-5.6886	738.9531	0
-19.5754	39.9874	-0.8366	6.5251	9.8714	-10.206	-10.3733	9.2021	24.5947	6.3578	-2.677	-2.175	10.0387	-11.3772	-3.1789	3.0116	44.3375	-6.5251	738.9688	0
-30.9526	40.8239	0.1673	9.2021	4.5174	-13.8868	-10.5406	9.5367	17.9023	3.3462	-1.8404	-0.1673	3.5135	-13.8868	-3.1789	3.1789	40.9912	-6.3578	738.9844	0
-38.4816	39.1508	1.3385	11.3772	-1.1712	-13.2176	-10.206	12.381	9.2021	3.0116	-2.3424	3.5135	1.5058	-14.8907	-3.5135	4.6847	36.8084	-4.1828	739	0
-40.1547	37.645	1.8404	10.8752	1.0039	-18.2369	-10.5406	11.8791	6.1905	2.677	-2.677	4.0155	1.3385	-16.5638	-5.6886	5.0193	32.793	-5.0193	739.0156	0
-39.6527	36.8084	2.8443	12.381	6.6924	-19.0735	-11.5445	13.3849	3.5135	3.5135	-1.1712	6.5251	4.5174	-16.0619	-6.5251	7.529	28.6102	-3.6808	739.0312	0
-38.6489	35.9719	3.1789	11.5445	1.8404	-21.4158	-12.5483	13.5522	3.1789	4.1828	-1.1712	5.8559	0.8366	-18.2369	-7.0271	5.8559	26.4352	-3.5135	739.0469	0
-40.4893	31.6218	3.3462	12.381	0.3346	-18.5715	-11.5445	14.2214	0	1.5058	-1.1712	6.5251	0.8366	-15.7272	-6.3578	5.6886	18.2369	-3.1789	739.0625	0
-40.4893	29.9487	3.1789	12.883	-1.6731	-18.4042	-12.2137	14.0541	-1.3385	1.8404	-1.0039	6.0232	-4.6847	-12.381	-6.8598	5.6886	16.8984	-3.8482	739.0781	0
-38.9835	27.7736	3.8482	15.7272	2.5097	-16.0619	-11.3772	17.233	-0.8366	2.175	0	7.0271	-6.5251	-6.8598	-1.6731	7.3617	13.3849	-4.0155	739.0938	0
-38.3143	23.4236	3.3462	16.8984	1.1712	-17.9023	-11.7118	14.0541	-4.6847	-2.0077	-1.3385	13.3849	-4.6847	-7.1944	-5.5213	3.0116	9.0348	-3.6808	739.1094	0
-33.1276	22.0851	3.8482	22.0851	-3.5135	-15.8946	-12.0464	14.7234	2.0077	-2.5097	0	15.3926	-13.0503	-4.6847	-7.0271	8.0309	6.0232	-3.5135	739.125	0
-33.7968	19.91	3.5135	23.7582	-2.8443	-12.7156	-11.7118	12.7156	0	-2.5097	-0.1673	16.0619	-12.2137	-3.6808	-6.1905	7.529	4.6847	-4.0155	739.1406	0
-33.2949	18.0696	2.8443	24.9294	-0.6692	-12.5483	-12.0464	12.5483	-2.8443	-2.175	-0.8366	18.4042	-12.2137	-1.8404	-4.3501	5.6886	2.3424	-4.5174	739.1562	0
