"Fp2-F4"	"F4-C4"	"C4-P4"	"P4-O2"	"Fp1-F3"	"F3-C3"	"C3-P3"	"P3-O1"	"Fp2-F8"	"F8-T4"	"T4-T6"	"T6-O2"	"Fp1-F7"	"F7-T3"	"T3-T5"	"T5-O1"	"Fz-Cz"	"Cz-Pz"	"t"	"seizure"
-3.8147	-5.4932	5.0354	8.8501	-0.4578	-0.6104	1.3733	0.7629	-5.3406	-0.3052	2.2888	7.9346	-2.1362	1.8311	1.2207	0.1526	-0.1526	4.425	103	1
-4.2725	-7.4768	5.0354	5.6457	-1.3733	-1.8311	-0.4578	-2.594	-7.4768	-1.2207	1.3733	6.2561	-2.8992	1.2207	-2.2888	-2.2888	0.1526	1.2207	103.0156	1
-0.7629	-7.4768	2.8992	5.6457	-1.3733	-1.5259	0.1526	-1.6785	-4.7302	-0.1526	1.0681	4.1199	-3.6621	0.6104	-0.7629	-0.6104	1.5259	0	103.0312	1
1.8311	-6.4087	0.3052	5.3406	0.3052	-1.5259	0.6104	-0.9155	-1.5259	-1.2207	-1.2207	5.0354	-1.5259	0.4578	-0.4578	0	-1.9836	4.5776	103.0469	1
2.594	-6.4087	-0.6104	4.2725	-1.5259	-2.2888	1.2207	-1.3733	-0.4578	-3.2043	-2.1362	5.6457	-2.4414	0	-0.9155	-0.6104	-4.2725	5.4932	103.0625	1
0.3052	-7.4768	2.2888	3.0518	-3.9673	-1.9836	1.5259	-1.3733	-1.9836	-2.2888	-2.4414	4.8828	-4.425	0	-0.3052	-1.0681	-2.594	2.2888	103.0781	1
-2.2888	-6.8664	3.2043	3.2043	-2.8992	-1.5259	0.6104	-1.0681	-3.0518	-0.9155	-1.8311	3.0518	-3.0518	-0.3052	-0.7629	-0.7629	-1.5259	1.5259	103.0938	1
-1.2207	-4.7302	1.9836	5.0354	-1.6785	-0.4578	0.1526	-1.3733	-1.9836	-1.2207	-1.5259	5.7983	-1.9836	0.4578	-1.5259	-0.3052	-1.3733	2.2888	103.1094	1
0.9155	-3.9673	-0.1526	3.8147	-0.6104	0.4578	-0.7629	-0.6104	0	-1.3733	-3.8147	5.7983	-0.6104	1.2207	-1.3733	-0.7629	-0.9155	0.9155	103.125	1
0.7629	-4.2725	-1.0681	2.7466	-2.4414	0.6104	-1.6785	-1.8311	-1.0681	-2.594	-3.5095	5.3406	-1.3733	-0.7629	-0.6104	-2.594	-0.3052	-1.2207	103.1406	1
0.4578	-6.5613	0.9155	3.0518	-3.3569	-0.6104	-0.7629	-0.9155	-1.5259	-2.594	-2.8992	4.8828	-1.0681	-1.9836	0	-2.594	-1.9836	1.3733	103.1562	1
1.3733	-8.6975	2.4414	4.7302	-3.6621	-0.1526	-1.0681	0	-1.0681	0	-3.6621	4.5776	-1.5259	-1.2207	-0.1526	-1.9836	-3.8147	5.3406	103.1719	1
0.3052	-8.5449	4.425	5.4932	-2.4414	-0.4578	-1.0681	2.1362	0.7629	-0.4578	-3.9673	5.3406	-0.6104	-0.4578	-0.9155	0.1526	-6.1035	7.782	103.1875	1
-1.8311	-12.0544	5.3406	6.1035	-4.1199	-1.8311	-1.3733	2.8992	-0.9155	-1.2207	-5.9509	5.6457	-2.1362	-0.3052	-3.0518	1.0681	-5.7983	3.8147	103.2031	1
-5.3406	-13.2751	3.8147	5.7983	-4.5776	-3.2043	-3.3569	1.9836	-5.188	-2.2888	-6.4087	4.8828	-2.594	-0.3052	-4.2725	-1.9836	-5.9509	-1.6785	103.2188	1
-5.9509	-12.0544	2.594	6.7139	-5.3406	-3.3569	-5.4932	2.1362	-6.1035	-2.4414	-5.7983	5.6457	-4.1199	0.3052	-6.4087	-1.8311	-3.6621	-5.0354	103.2344	1
-2.7466	-10.9863	2.1362	6.2561	-4.425	-3.5095	-5.188	3.0518	-4.7302	-1.6785	-4.1199	5.188	-3.8147	0.4578	-6.2561	-0.4578	-3.9673	-4.425	103.25	1
-0.6104	-9.0027	1.3733	6.1035	-5.3406	-2.8992	-3.8147	3.2043	-3.0518	-0.9155	-4.2725	6.1035	-3.3569	0.3052	-6.1035	0.3052	-5.4932	-0.6104	103.2656	1
-2.594	-8.5449	1.9836	5.7983	-6.1035	-2.594	-3.6621	2.8992	-4.1199	-1.3733	-3.5095	5.6457	-3.5095	0.1526	-5.6457	-0.4578	-8.0872	1.3733	103.2812	1
-5.9509	-7.9346	4.7302	5.4932	-4.1199	-2.4414	-4.425	2.2888	-5.0354	-1.6785	-1.5259	4.5776	-3.5095	0.6104	-4.2725	-1.5259	-8.3923	1.3733	103.2969	1
-7.1716	-8.2397	6.4087	6.7139	-1.9836	-3.5095	-4.2725	1.2207	-6.2561	0.1526	-0.9155	4.7302	-2.8992	1.0681	-4.5776	-2.1362	-6.8664	1.3733	103.3125	1
-5.0354	-9.1553	4.7302	8.0872	-1.3733	-4.2725	-2.8992	1.6785	-4.1199	-1.2207	-1.6785	5.6457	-1.9836	0	-4.1199	-0.7629	-5.188	0.4578	103.3281	1
-4.425	-10.5286	4.1199	7.4768	-2.2888	-3.3569	-3.2043	0.6104	-3.8147	-3.5095	-2.2888	6.2561	-2.7466	-0.1526	-3.9673	-1.3733	-5.0354	-0.4578	103.3438	1
-5.188	-11.5967	2.8992	7.1716	-3.6621	-3.2043	-4.425	0.6104	-3.9673	-6.4087	-2.2888	5.9509	-2.4414	-2.7466	-4.1199	-1.3733	-4.8828	-2.7466	103.3594	1
-4.8828	-13.2751	2.8992	6.1035	-4.2725	-4.8828	-5.7983	1.3733	-3.6621	-5.4932	-3.6621	3.6621	-3.0518	-3.6621	-5.4932	-1.3733	-7.6294	-1.6785	103.375	1
-2.4414	-12.97	2.1362	6.7139	-4.8828	-5.4932	-5.6457	3.0518	-0.7629	-5.0354	-4.8828	4.1199	-3.6621	-3.5095	-5.6457	-0.1526	-10.5286	3.8147	103.3906	1
-3.0518	-12.6648	1.8311	7.3242	-3.9673	-6.7139	-4.425	3.6621	-0.4578	-6.4087	-4.5776	4.8828	-1.9836	-3.9673	-5.7983	0.3052	-12.3596	4.1199	103.4062	1
-5.6457	-11.9018	2.594	7.019	-6.2561	-6.7139	-3.2043	3.9673	-2.594	-6.2561	-5.3406	6.2561	-3.3569	-3.9673	-5.188	0.3052	-12.6648	4.8828	103.4219	1
-7.9346	-11.1389	2.7466	7.019	-6.8664	-6.5613	-2.7466	2.594	-4.5776	-7.019	-2.8992	5.188	-3.0518	-4.5776	-4.7302	-1.2207	-9.9182	1.0681	103.4375	1
-5.9509	-9.1553	3.3569	7.9346	-3.9673	-4.8828	-2.594	3.8147	-3.2043	-5.7983	-0.1526	5.3406	-1.5259	-2.7466	-4.1199	0.7629	-7.782	0.1526	103.4531	1
-4.425	-9.4604	1.3733	5.6457	-5.0354	-6.7139	-3.2043	0.6104	-4.425	-6.8664	-1.8311	6.2561	0	-1.8311	-9.3079	-3.2043	-8.8501	0.6104	103.4688	1
-1.9836	-9.4604	1.0681	4.7302	-6.4087	-5.188	-2.1362	1.8311	-1.3733	-5.9509	-3.6621	5.3406	-2.1362	-1.6785	-6.8664	-1.2207	-10.376	3.2043	103.4844	1
-3.5095	-9.7656	1.9836	4.5776	-7.3242	-4.2725	-2.7466	1.3733	-1.9836	-7.1716	-2.7466	5.188	-2.1362	-2.1362	-7.019	-1.6785	-11.4441	3.3569	103.5	1
-5.9509	-9.1553	2.4414	5.0354	-5.6457	-5.9509	-1.0681	0.6104	-3.3569	-6.4087	-1.9836	4.1199	-0.9155	-1.6785	-7.1716	-2.2888	-10.8337	2.7466	103.5156	1
-5.4932	-8.8501	3.2043	5.6457	-5.4932	-5.6457	-1.6785	1.0681	-2.1362	-5.188	-2.2888	4.1199	-0.7629	-1.6785	-7.9346	-1.3733	-10.376	4.7302	103.5312	1
-4.8828	-8.5449	2.8992	5.6457	-7.019	-5.188	-1.6785	2.1362	-2.2888	-4.8828	-2.594	4.8828	-2.594	-0.9155	-8.6975	0.4578	-10.5286	3.9673	103.5469	1
-4.7302	-8.0872	1.9836	3.6621	-8.0872	-4.2725	-1.0681	1.2207	-3.5095	-4.8828	-3.0518	4.2725	-3.5095	0	-8.5449	-0.1526	-7.6294	-0.3052	103.5625	1
-4.2725	-7.3242	2.7466	1.8311	-6.4087	-3.3569	-1.0681	0	-3.8147	-4.8828	-2.7466	4.425	-1.6785	-1.0681	-7.4768	-0.6104	-5.4932	-2.4414	103.5781	1
-2.7466	-5.3406	2.2888	0.1526	-6.5613	-3.6621	0.3052	-0.4578	-3.5095	-2.1362	-3.3569	3.3569	-2.4414	-1.0681	-5.9509	-0.9155	-5.4932	0.3052	103.5938	1
-0.3052	-3.3569	0.6104	1.6785	-5.188	-3.2043	0.3052	0.9155	-1.0681	-2.2888	-2.8992	4.8828	-1.8311	-0.1526	-5.188	0	-6.5613	4.5776	103.6094	1
0.3052	-3.9673	-0.1526	2.2888	-4.1199	-3.2043	0.1526	0.1526	-0.7629	-3.6621	-3.2043	6.1035	-1.5259	0.6104	-5.188	-0.9155	-8.8501	7.6294	103.625	1
-0.1526	-4.7302	0.1526	2.1362	-3.3569	-3.5095	0.7629	-1.3733	-0.6104	-5.0354	-3.6621	6.7139	-1.2207	0.6104	-3.9673	-2.8992	-7.3242	3.9673	103.6406	1
-1.2207	-3.9673	1.2207	0.4578	-3.9673	-3.6621	1.6785	-2.2888	0.3052	-5.188	-3.3569	4.7302	-2.4414	0.6104	-3.0518	-3.3569	-6.1035	3.2043	103.6562	1
0.3052	-5.188	2.1362	1.5259	-2.8992	-4.1199	1.8311	-2.8992	0.7629	-4.2725	-2.594	4.8828	-2.8992	0.4578	-2.4414	-3.2043	-4.7302	3.3569	103.6719	1
1.3733	-6.4087	3.9673	1.9836	-1.5259	-3.5095	2.1362	-2.594	1.9836	-1.3733	-4.7302	5.0354	-1.9836	1.5259	-2.594	-2.4414	-3.0518	3.5095	103.6875	1
1.2207	-5.4932	4.7302	1.9836	-1.3733	-2.7466	3.0518	-3.3569	1.3733	0.9155	-4.2725	4.425	-1.8311	1.5259	-1.3733	-2.7466	-3.0518	3.8147	103.7031	1
-2.2888	-3.0518	4.7302	2.594	-3.0518	-1.6785	2.594	-2.7466	-2.2888	3.0518	-3.5095	4.7302	-3.8147	1.8311	-1.0681	-1.8311	-4.2725	6.1035	103.7188	1
-3.0518	-1.5259	5.6457	2.4414	-3.0518	-1.0681	1.9836	-3.2043	-4.8828	7.1716	-2.594	3.8147	-3.9673	1.0681	0.4578	-2.8992	-2.7466	6.2561	103.7344	1
-3.8147	0.3052	7.019	3.0518	-0.9155	-1.2207	3.5095	-2.4414	-5.0354	9.4604	-1.5259	3.6621	-1.6785	1.8311	-0.4578	-0.7629	-3.6621	9.613	103.75	1
-2.2888	1.3733	6.2561	2.8992	-0.1526	-2.7466	4.7302	-1.6785	-5.3406	13.4277	-5.3406	5.4932	-0.9155	1.6785	-0.3052	-0.3052	-2.8992	8.5449	103.7656	1
-3.2043	1.8311	4.5776	1.3733	-0.9155	-2.2888	3.9673	-2.594	-5.188	15.8691	-10.6811	4.5776	-1.8311	1.5259	0	-1.5259	-1.2207	6.2561	103.7812	1
-2.2888	-0.3052	3.5095	0.4578	-1.6785	-1.0681	0.9155	-1.8311	-3.2043	22.583	-21.2097	3.2043	-2.2888	0.9155	-0.7629	-1.5259	3.3569	-2.1362	103.7969	1
1.6785	-3.5095	0.3052	1.0681	-2.1362	-2.594	-0.3052	-1.9836	1.6785	26.8554	-31.1279	2.1362	-3.5095	-0.3052	-1.2207	-1.9836	3.5095	-4.5776	103.8125	1
3.6621	-6.7139	-0.4578	2.7466	-0.6104	-1.8311	-0.3052	-2.594	5.4932	24.5666	-32.959	2.1362	-2.594	-0.7629	-0.7629	-1.2207	-0.3052	-1.3733	103.8281	1
2.1362	-7.1716	0.3052	4.1199	-1.5259	-1.6785	1.2207	-3.2043	5.6457	20.9045	-30.2124	3.0518	-2.7466	-0.1526	-0.6104	-1.6785	-1.6785	-0.3052	103.8438	1
-1.9836	-8.2397	2.594	4.2725	-3.3569	-2.594	2.4414	-3.2043	1.6785	17.395	-25.6347	3.2043	-4.8828	0.6104	0.3052	-2.7466	-3.2043	-0.1526	103.8594	1
-3.5095	-6.7139	2.8992	5.0354	-3.8147	-2.7466	2.1362	-2.7466	-1.5259	13.4277	-17.2424	3.0518	-5.188	0	-0.4578	-1.5259	-3.0518	0.3052	103.875	1
-2.8992	-5.3406	2.1362	6.5613	-1.2207	-3.2043	1.9836	-2.1362	-3.6621	11.1389	-9.7656	2.7466	-3.6621	0.4578	-0.6104	-0.7629	-2.4414	1.3733	103.8906	1
-0.3052	-4.425	2.1362	8.3923	0.1526	-2.8992	3.8147	0.1526	-2.2888	12.8174	-7.782	3.0518	-2.2888	1.3733	0	2.1362	-1.8311	4.7302	103.9062	1
0	-5.4932	1.9836	5.6457	-3.2043	-3.8147	3.3569	-1.3733	-3.2043	7.4768	-5.9509	3.8147	-1.9836	1.3733	-3.0518	-1.3733	-4.2725	2.1362	103.9219	1
-0.7629	-6.5613	3.6621	3.9673	-4.5776	-3.5095	4.5776	-2.2888	-2.2888	5.9509	-4.425	1.0681	-5.0354	0.3052	-0.7629	-0.3052	-3.6621	1.6785	103.9375	1
-0.7629	-7.4768	4.5776	4.2725	-2.1362	-3.6621	3.3569	-2.4414	-0.4578	4.5776	-4.425	0.9155	-3.6621	-0.4578	-0.9155	0.1526	-3.6621	2.2888	103.9531	1
-1.5259	-8.5449	5.7983	4.425	-0.4578	-5.188	3.5095	-1.5259	0.6104	7.1716	-9.0027	1.3733	-2.7466	-0.6104	-1.6785	1.3733	-6.1035	3.3569	103.9688	1
-0.9155	-9.0027	5.3406	2.8992	-1.3733	-5.3406	4.1199	-2.4414	1.5259	8.0872	-12.5122	1.2207	-3.2043	-0.4578	-1.8311	0.4578	-7.782	3.0518	103.9844	1
-13.4277	3.9673	-30.8227	48.2177	0.7629	16.6321	-56.1523	48.8281	-3.9673	-15.2588	6.5613	20.5993	93.8415	-77.362	-46.5393	40.1306	18.0054	-37.0788	316	1
-10.2234	3.5095	-32.8064	49.4384	2.2888	16.4795	-56.6101	49.591	-2.4414	-15.7165	6.7139	21.3623	94.1467	-76.7516	-44.0979	38.4521	19.2261	-39.3676	316.0156	1
-7.6294	3.8147	-35.0952	49.2859	2.4414	16.0217	-57.0678	51.8798	-1.3733	-15.564	6.1035	21.2097	93.2311	-75.0732	-44.8608	39.978	17.5476	-38.6047	316.0312	1
-11.7493	5.7983	-34.6374	48.6755	1.5259	15.1062	-57.0678	51.5747	-1.8311	-16.7847	6.5613	20.1416	91.7053	-74.0051	-44.7082	38.1469	17.7002	-36.6211	316.0469	1
-14.6484	3.0518	-31.4331	48.9807	2.2888	14.0381	-58.7463	52.3376	-4.8828	-15.8691	7.6294	19.0735	90.4845	-73.8525	-45.4712	38.7573	18.4631	-40.8935	316.0625	1
-13.7329	2.2888	-31.2805	49.8962	3.9673	13.2751	-59.5092	53.2531	-3.9673	-15.1062	7.4768	18.7683	91.0949	-74.0051	-45.0134	38.9099	19.2261	-40.5883	316.0781	1
-12.3596	2.7466	-34.1797	51.8798	6.4087	12.3596	-58.8989	53.5583	-1.5259	-15.1062	5.6457	19.0735	91.8578	-73.0895	-45.166	39.8254	19.8364	-38.6047	316.0938	1
-12.6648	2.2888	-34.0271	52.0324	5.9509	12.6648	-58.1359	53.7109	-0.9155	-16.9372	5.3406	20.1416	91.5527	-72.0214	-44.7082	39.3676	19.8364	-38.4521	316.1094	1
-15.1062	3.6621	-32.8064	51.5747	4.1199	12.6648	-56.9152	52.4902	-3.5095	-15.1062	6.4087	19.5312	90.0268	-71.4111	-44.7082	38.4521	21.2097	-40.7409	316.125	1
-15.1062	4.425	-33.5693	52.948	3.9673	13.1225	-56.4575	51.4221	-3.2043	-14.3433	6.8664	19.3786	90.6371	-70.343	-45.9289	37.6892	18.6157	-35.553	316.1406	1
-13.8855	7.4768	-35.2478	55.0842	3.8147	11.7493	-53.5583	52.4902	-0.6104	-13.4277	7.3242	20.1416	90.0268	-70.8007	-43.6401	38.9099	18.6157	-31.1279	316.1562	1
-12.8174	5.6457	-34.79	55.3894	0.9155	12.0544	-51.2695	54.1687	-0.1526	-12.97	5.9509	20.5993	88.0431	-70.6481	-42.7246	41.1987	18.7683	-31.8908	316.1719	1
-12.8174	5.0354	-34.0271	57.8308	-0.1526	13.2751	-50.2014	55.8471	-0.6104	-11.9018	6.7139	21.8201	86.8224	-69.7326	-39.6728	41.3513	18.9209	-34.3322	316.1875	1
-15.564	3.8147	-35.2478	55.2368	-2.7466	12.97	-53.2531	52.6428	-4.425	-14.0381	5.0354	21.6675	85.9069	-66.986	-46.0815	36.7737	18.1579	-36.9262	316.2031	1
-13.8855	4.5776	-36.6211	54.0161	-0.7629	14.3433	-55.3894	54.3212	-2.4414	-12.6648	5.0354	18.1579	85.9069	-67.5964	-45.9289	40.1306	17.5476	-36.0107	316.2188	1
-10.2234	2.8992	-37.8418	55.5419	2.594	14.0381	-57.373	55.2368	1.8311	-13.4277	2.4414	19.5312	87.8906	-67.5964	-46.6919	40.8935	14.1907	-31.8908	316.2344	1
-12.5122	3.6621	-39.6728	56.3049	2.1362	12.8174	-56.7627	54.4738	0.7629	-13.8855	1.3733	19.5312	85.4492	-65.6127	-47.76	40.5883	11.2915	-29.602	316.25	1
-14.801	1.8311	-36.4685	55.2368	2.594	11.4441	-56.9152	54.3212	-1.2207	-13.4277	2.2888	18.1579	85.6017	-66.5283	-46.6919	39.0625	11.1389	-33.1115	316.2656	1
-17.7002	2.4414	-34.0271	54.3212	1.9836	10.8337	-57.6782	53.7109	-2.2888	-13.2751	3.5095	17.0898	84.5336	-67.2912	-48.0651	39.6728	13.1225	-34.4848	316.2812	1
-16.7847	4.1199	-35.8581	54.6264	2.594	9.7656	-57.9834	56.1523	-2.4414	-10.8337	2.2888	17.0898	84.381	-68.0541	-48.2177	42.4194	15.7165	-36.1633	316.2969	1
-13.8855	6.4087	-38.1469	54.4738	3.9673	10.2234	-58.1359	56.9152	-0.4578	-10.2234	1.9836	17.5476	84.9914	-67.2912	-49.1333	44.403	16.0217	-36.0107	316.3125	1
-13.2751	6.2561	-39.3676	53.4057	2.594	10.2234	-57.6782	57.6782	0.4578	-12.207	1.9836	16.7847	84.8388	-68.5119	-49.4384	45.9289	15.564	-36.4685	316.3281	1
-14.1907	4.1199	-38.1469	52.4902	0.3052	10.376	-56.6101	56.3049	-1.2207	-12.6648	1.8311	16.3269	83.4655	-68.0541	-49.7436	44.7082	13.1225	-35.4004	316.3438	1
-12.6648	4.1199	-39.0625	52.3376	-0.4578	9.9182	-55.9997	57.8308	0.7629	-13.5803	1.8311	15.7165	82.8552	-67.5964	-51.2695	47.3022	11.7493	-33.8745	316.3594	1
-10.8337	4.425	-40.7409	53.5583	0	11.1389	-57.0678	57.373	1.6785	-12.97	1.9836	15.7165	81.6345	-65.9179	-50.5066	46.2341	13.7329	-35.2478	316.375	1
-10.6811	3.2043	-40.7409	54.6264	1.6785	11.5967	-57.6782	58.5937	2.1362	-12.8174	0.9155	16.1743	82.0922	-62.8662	-51.2695	46.2341	16.0217	-38.2995	316.3906	1
-13.4277	2.1362	-38.9099	54.0161	1.3733	11.5967	-58.4411	56.7627	0.3052	-16.0217	3.3569	16.1743	80.7189	-63.9343	-50.8117	45.3186	16.1743	-41.1987	316.4062	1
-16.0217	2.8992	-38.1469	53.8635	2.1362	12.0544	-60.4248	55.6945	-1.6785	-14.9536	5.0354	14.1907	79.8034	-63.1713	-52.3376	45.166	17.2424	-43.6401	316.4219	1
-14.0381	5.188	-37.8418	54.0161	5.0354	9.3079	-58.8989	57.0678	-0.6104	-11.9018	5.9509	13.8855	80.8715	-62.561	-51.7273	45.9289	16.4795	-37.6892	316.4375	1
-12.0544	8.0872	-38.2995	53.5583	5.7983	9.9182	-59.2041	57.9834	1.2207	-9.1553	5.3406	13.8855	81.0241	-61.798	-52.185	47.4548	15.8691	-35.553	316.4531	1
-13.4277	8.0872	-37.384	52.6428	4.5776	9.4604	-57.0678	57.2204	0.1526	-8.0872	5.3406	12.5122	80.8715	-61.1877	-52.6428	47.1496	14.1907	-35.2478	316.4688	1
-16.9372	6.7139	-34.0271	51.7273	1.8311	9.4604	-57.0678	56.7627	-1.8311	-7.6294	5.0354	11.9018	78.8879	-61.3403	-52.948	46.3867	16.0217	-37.8418	316.4844	1
-16.9372	4.5776	-32.0434	51.1169	1.8311	8.2397	-55.9997	56.1523	-1.5259	-8.6975	6.2561	10.6811	78.4301	-61.9506	-54.4738	48.2177	17.5476	-39.0625	316.5	1
-13.8855	5.0354	-34.9426	51.4221	2.2888	8.8501	-56.4575	57.373	0.1526	-7.1716	4.1199	10.5286	78.8879	-61.1877	-54.6264	48.9807	17.8528	-38.2995	316.5156	1
-10.6811	2.4414	-36.1633	52.948	1.0681	11.2915	-57.373	57.5256	3.6621	-9.613	3.0518	11.4441	78.8879	-61.0351	-53.4057	48.0651	15.7165	-37.0788	316.5312	1
-11.1389	-0.4578	-35.2478	52.185	-0.6104	12.3596	-56.6101	55.9997	2.8992	-11.4441	2.1362	11.7493	77.5146	-60.5773	-53.8635	48.0651	12.97	-36.4685	316.5469	1
-11.7493	-1.2207	-34.0271	51.1169	-1.5259	12.8174	-55.9997	53.7109	1.3733	-9.613	2.4414	9.9182	75.9887	-59.6618	-55.0842	47.76	12.207	-36.9262	316.5625	1
-9.9182	0	-33.4167	50.6591	0.3052	12.8174	-56.3049	52.6428	3.3569	-9.0027	3.0518	9.9182	75.6835	-59.5092	-54.0161	47.3022	13.8855	-36.3159	316.5781	1
-7.9346	1.5259	-36.4685	52.948	2.4414	11.5967	-56.1523	52.6428	4.7302	-8.2397	1.2207	12.3596	76.4465	-58.1359	-54.0161	46.2341	15.1062	-37.9944	316.5938	1
-9.7656	2.8992	-39.3676	52.185	3.2043	10.8337	-55.8471	51.5747	3.3569	-10.0708	1.2207	11.4441	76.7516	-58.8989	-54.0161	45.9289	15.2588	-42.1142	316.6094	1
-10.376	4.7302	-42.1142	50.5066	4.2725	10.6811	-58.1359	50.354	3.6621	-13.4277	1.0681	11.4441	76.7516	-58.7463	-56.3049	45.4712	15.2588	-45.166	316.625	1
-11.1389	4.2725	-39.6728	49.1333	5.4932	10.376	-58.5937	49.7436	2.1362	-11.7493	2.2888	9.9182	76.1413	-58.2885	-56.4575	45.6237	13.7329	-41.5039	316.6406	1
-8.0872	3.9673	-39.6728	51.5747	7.4768	11.5967	-59.8144	52.7954	3.8147	-11.1389	4.7302	10.376	77.6672	-57.5256	-56.6101	48.5229	12.207	-35.7055	316.6562	1
-8.5449	3.8147	-40.1306	50.0488	6.4087	11.4441	-61.4929	53.8635	3.2043	-11.7493	3.2043	10.5286	77.9724	-58.4411	-57.8308	48.5229	12.207	-34.6374	316.6719	1
-12.8174	4.425	-37.384	49.591	4.7302	10.9863	-59.2041	53.2531	1.3733	-10.8337	3.5095	9.7656	76.1413	-57.9834	-57.5256	49.1333	14.0381	-39.6728	316.6875	1
-16.0217	2.1362	-33.2641	48.3703	3.2043	11.9018	-58.1359	52.185	-0.4578	-10.2234	4.425	7.4768	75.9887	-57.8308	-58.2885	49.2859	16.1743	-41.0461	316.7031	1
-15.8691	1.9836	-32.6538	50.0488	3.0518	11.5967	-56.9152	53.7109	-0.9155	-9.4604	5.4932	8.3923	75.0732	-57.0678	-57.8308	51.2695	17.7002	-41.1987	316.7188	1
-13.5803	3.5095	-34.9426	48.9807	2.4414	13.7329	-58.1359	55.2368	0.9155	-9.3079	5.4932	6.8664	74.4628	-56.7627	-56.7627	52.3376	16.9372	-39.0625	316.7344	1
-15.564	3.6621	-32.6538	49.7436	2.1362	13.5803	-57.5256	54.6264	0.3052	-6.8664	3.8147	7.9346	73.6999	-56.4575	-56.3049	51.8798	12.207	-36.0107	316.75	1
-18.1579	3.3569	-30.6701	47.9126	0.4578	13.7329	-56.9152	53.4057	0	-7.1716	3.2043	6.4087	72.6318	-55.9997	-57.2204	51.2695	9.4604	-32.8064	316.7656	1
-19.3786	4.1199	-28.6865	46.8444	0.4578	13.7329	-57.2204	53.2531	-0.3052	-5.9509	4.1199	5.0354	71.8688	-55.8471	-57.9834	52.185	10.5286	-32.959	316.7812	1
-18.3105	5.9509	-29.9072	48.3703	3.5095	11.5967	-57.0678	55.6945	0.7629	-3.9673	3.6621	5.6457	73.6999	-55.3894	-58.2885	53.7109	13.7329	-34.9426	316.7969	1
-18.0054	8.6975	-31.7383	48.6755	4.1199	11.2915	-57.8308	56.7627	1.8311	-2.8992	2.4414	6.2561	73.0895	-55.6945	-57.8308	54.779	13.8855	-34.6374	316.8125	1
-17.0898	5.7983	-29.602	46.6919	3.9673	11.4441	-58.1359	56.1523	2.8992	-4.7302	2.8992	4.7302	73.2421	-55.3894	-57.9834	53.5583	15.564	-39.2151	316.8281	1
-17.8528	4.1199	-28.9917	46.5393	3.0518	11.1389	-57.6782	54.779	3.8147	-7.019	1.8311	5.188	71.5637	-55.3894	-58.4411	53.5583	16.0217	-41.5039	316.8438	1
-12.97	3.6621	-33.4167	47.1496	2.8992	11.7493	-57.6782	54.3212	6.8664	-9.4604	1.6785	5.3406	71.4111	-55.0842	-58.1359	53.1005	14.4958	-38.2995	316.8594	1
-7.9346	7.3242	-41.1987	47.6074	4.1199	10.8337	-56.4575	54.9316	9.613	-9.9182	0.4578	5.6457	72.174	-54.6264	-57.0678	52.948	12.5122	-33.7219	316.875	1
-6.7139	7.1716	-42.572	46.997	3.0518	11.7493	-55.0842	53.8635	10.376	-11.2915	-0.7629	6.5613	71.2585	-54.0161	-56.4575	52.7954	13.4277	-34.6374	316.8906	1
-12.5122	5.6457	-35.2478	46.8444	0.7629	12.5122	-52.3376	52.0324	8.3923	-12.0544	0.9155	7.4768	69.8852	-53.2531	-56.1523	52.4902	12.8174	-34.1797	316.9062	1
-18.6157	6.5613	-32.196	46.5393	0	13.2751	-53.5583	52.7954	2.8992	-10.2234	3.6621	5.9509	68.5119	-52.4902	-56.6101	53.1005	14.4958	-35.7055	316.9219	1
-16.4795	8.6975	-35.0952	46.8444	0.7629	14.3433	-54.6264	51.8798	2.594	-9.1553	5.9509	4.5776	68.8171	-51.8798	-57.9834	53.4057	16.1743	-36.6211	316.9375	1
-12.8174	8.0872	-36.0107	47.6074	3.6621	14.6484	-57.0678	55.5419	3.0518	-7.4768	5.188	6.1035	69.1223	-50.6591	-57.6782	55.9997	13.1225	-33.2641	316.9531	1
-15.1062	6.1035	-32.3486	46.8444	4.2725	14.3433	-57.6782	55.5419	3.5095	-7.3242	3.8147	5.4932	68.5119	-50.2014	-57.6782	55.8471	10.0708	-32.3486	316.9688	1
-16.3269	4.8828	-28.6865	44.5556	4.2725	13.5803	-58.4411	57.5256	4.1199	-7.9346	5.4932	2.7466	67.5964	-49.1333	-59.8144	58.2885	12.0544	-35.4004	316.9844	1
0.3052	2.1362	-3.8147	3.5095	3.0518	-0.7629	1.2207	5.6457	1.9836	0.1526	-2.7466	2.7466	1.8311	2.2888	3.8147	1.2207	-4.5776	12.207	741	1
-1.0681	2.1362	-1.8311	2.7466	4.5776	-1.9836	1.5259	5.6457	1.2207	-0.3052	-1.0681	2.1362	2.7466	1.8311	3.8147	1.3733	-3.2043	10.8337	741.0156	1
-0.3052	2.594	-2.1362	2.2888	3.9673	-0.7629	0.7629	5.188	2.2888	-0.1526	-0.6104	0.9155	1.9836	1.8311	3.9673	1.3733	-2.7466	10.376	741.0312	1
1.5259	3.3569	-3.2043	4.5776	5.0354	0.7629	0.3052	5.9509	3.9673	0.6104	-1.5259	3.2043	3.6621	2.2888	4.1199	1.9836	-2.594	11.4441	741.0469	1
2.2888	2.4414	-3.5095	3.9673	6.1035	-1.2207	1.3733	5.188	3.5095	0.6104	-1.9836	3.0518	3.6621	1.3733	4.2725	2.1362	-4.1199	12.3596	741.0625	1
0.3052	1.3733	-2.1362	2.8992	5.3406	-1.5259	1.3733	5.188	1.2207	0.4578	-1.3733	2.1362	2.7466	2.1362	4.1199	1.3733	-5.4932	13.2751	741.0781	1
-0.3052	1.5259	-1.5259	2.1362	4.7302	-1.2207	0.7629	5.4932	1.3733	0.6104	-1.6785	1.5259	2.2888	2.1362	4.2725	1.0681	-5.3406	13.4277	741.0938	1
1.0681	3.0518	-1.9836	3.3569	6.1035	-0.1526	-0.1526	4.2725	3.9673	0.7629	-1.3733	2.1362	2.7466	2.4414	4.1199	0.7629	-3.6621	12.8174	741.1094	1
3.2043	3.2043	-2.7466	2.8992	7.9346	-1.6785	1.5259	4.2725	5.188	0.9155	-1.8311	2.2888	4.7302	2.2888	3.6621	1.3733	-3.9673	13.2751	741.125	1
2.2888	3.0518	-3.5095	1.9836	6.7139	-2.1362	2.2888	3.9673	3.2043	1.2207	-2.4414	1.8311	3.8147	1.3733	3.5095	2.1362	-3.8147	13.2751	741.1406	1
0.7629	1.6785	-1.5259	1.2207	5.0354	-2.4414	1.9836	2.594	3.2043	-0.4578	-2.1362	1.5259	1.6785	1.9836	3.9673	-0.4578	-3.0518	12.207	741.1562	1
0.3052	1.9836	-0.6104	0.7629	5.188	-0.9155	0.4578	3.5095	2.4414	1.5259	-1.2207	-0.3052	2.7466	1.6785	3.8147	0	-2.8992	12.6648	741.1719	1
2.2888	1.8311	-1.0681	1.6785	5.9509	0.4578	0.3052	4.7302	4.2725	1.6785	-1.9836	0.7629	3.8147	1.9836	3.9673	1.6785	-3.9673	14.1907	741.1875	1
3.6621	1.3733	-2.1362	2.594	5.7983	0.3052	1.3733	4.1199	4.1199	1.5259	-1.6785	1.5259	3.9673	2.594	3.6621	1.3733	-2.7466	12.8174	741.2031	1
1.5259	1.9836	-1.5259	1.0681	5.4932	-0.7629	1.0681	3.6621	3.0518	1.2207	-2.1362	0.9155	3.5095	1.8311	3.6621	0.4578	-2.8992	11.5967	741.2188	1
-1.0681	2.1362	-0.9155	0	5.188	-0.7629	-0.1526	3.2043	1.2207	1.0681	-1.2207	-0.9155	2.8992	1.0681	2.4414	1.0681	-2.2888	9.9182	741.2344	1
0.6104	2.594	0.1526	1.5259	6.1035	1.3733	-1.3733	4.1199	2.594	2.1362	0.6104	-0.4578	2.7466	2.8992	2.8992	1.6785	-1.9836	11.1389	741.25	1
1.9836	2.7466	-0.9155	3.0518	6.2561	0.9155	-1.2207	4.425	2.1362	1.8311	-0.3052	3.2043	5.0354	3.9673	0.7629	0.6104	-3.8147	13.1225	741.2656	1
1.9836	1.6785	-0.9155	1.8311	4.5776	0.6104	-0.6104	3.8147	3.5095	2.1362	-2.7466	1.6785	3.2043	1.6785	1.6785	1.8311	-4.5776	12.5122	741.2812	1
-0.6104	1.8311	-0.3052	-0.1526	3.8147	-0.7629	0	3.2043	1.8311	0.4578	-1.2207	-0.3052	2.2888	0.7629	1.8311	1.3733	-3.3569	9.9182	741.2969	1
-1.0681	0.9155	1.0681	-0.3052	3.8147	0.1526	-1.3733	2.1362	0.9155	1.0681	0.3052	-1.6785	1.6785	1.0681	1.3733	0.6104	-2.4414	9.3079	741.3125	1
1.8311	0.6104	0.7629	-0.9155	4.5776	0.9155	-1.9836	3.6621	3.6621	0.9155	-0.3052	-1.9836	2.7466	1.3733	0.4578	2.594	-2.594	9.613	741.3281	1
2.7466	1.0681	0.3052	-0.1526	5.0354	0.3052	-0.3052	3.3569	3.5095	2.594	-1.8311	-0.3052	3.8147	1.2207	0.4578	2.8992	-3.0518	11.2915	741.3438	1
1.2207	1.5259	0.3052	-2.7466	3.8147	-0.4578	0.4578	4.2725	2.2888	1.8311	-1.3733	-2.4414	3.2043	0.4578	-0.4578	4.8828	-4.2725	10.9863	741.3594	1
-0.3052	2.4414	0.4578	-3.6621	3.8147	-1.3733	-0.1526	5.4932	1.3733	1.2207	-1.5259	-2.1362	2.8992	-0.1526	-0.9155	5.9509	-3.5095	9.9182	741.375	1
-0.6104	2.594	1.2207	-3.3569	3.5095	0.4578	-1.8311	4.5776	2.4414	0.7629	-1.0681	-2.2888	3.3569	-0.9155	-1.6785	5.9509	-1.2207	8.0872	741.3906	1
2.2888	2.2888	0	-2.2888	5.0354	1.3733	-2.1362	3.3569	3.8147	1.9836	-1.9836	-1.5259	4.425	0.1526	-2.2888	5.3406	-0.6104	8.2397	741.4062	1
2.1362	4.425	-0.7629	-3.2043	4.5776	0.6104	-0.4578	3.3569	2.8992	2.594	-2.2888	-0.6104	4.425	-0.6104	-2.7466	7.019	-0.3052	8.3923	741.4219	1
-0.1526	3.9673	0	-5.6457	3.2043	-0.1526	-0.9155	2.8992	1.2207	2.2888	-2.4414	-2.8992	3.6621	-1.0681	-3.9673	6.4087	-2.7466	9.613	741.4375	1
-0.4578	4.8828	-0.1526	-5.9509	2.8992	1.0681	-2.7466	2.1362	2.594	1.3733	-2.2888	-3.3569	2.8992	-1.2207	-2.8992	4.5776	-3.2043	9.7656	741.4531	1
0.9155	4.7302	-0.1526	-5.0354	3.9673	1.6785	-3.5095	2.7466	4.5776	1.9836	-2.7466	-3.3569	3.5095	-0.9155	-3.0518	5.3406	-3.3569	10.6811	741.4688	1
3.0518	3.8147	-0.1526	-3.6621	4.5776	1.2207	-1.9836	3.6621	5.3406	3.0518	-2.7466	-2.594	4.8828	-1.3733	-2.8992	6.8664	-2.4414	10.8337	741.4844	1
2.1362	3.6621	0.3052	-5.6457	3.5095	-0.1526	-0.9155	2.7466	3.2043	3.3569	-3.2043	-2.8992	3.2043	-0.7629	-3.9673	6.7139	-2.7466	10.8337	741.5	1
-0.3052	4.7302	0.7629	-6.1035	1.8311	0.3052	-0.6104	1.9836	1.8311	3.0518	-2.1362	-3.6621	1.9836	-0.9155	-3.5095	5.9509	-2.594	10.0708	741.5156	1
0	5.3406	0.6104	-5.7983	2.1362	2.2888	-3.3569	3.2043	3.9673	2.4414	-1.6785	-4.5776	2.4414	-0.9155	-3.5095	6.2561	-3.5095	11.4441	741.5312	1
2.2888	4.7302	-0.4578	-4.425	2.8992	3.0518	-3.3569	4.1199	5.4932	2.4414	-2.4414	-3.3569	3.9673	-0.6104	-2.8992	6.2561	-4.5776	11.9018	741.5469	1
3.8147	4.425	-0.9155	-4.2725	2.4414	3.3569	-2.4414	4.5776	5.9509	2.594	-3.5095	-1.9836	3.9673	-0.3052	-2.2888	6.5613	-3.6621	11.2915	741.5625	1
1.2207	4.5776	-0.6104	-3.6621	1.5259	2.7466	-2.1362	3.9673	3.8147	1.8311	-2.4414	-1.6785	1.9836	-0.3052	-1.8311	6.2561	-3.0518	9.0027	741.5781	1
-0.1526	4.1199	1.6785	-5.188	1.6785	2.2888	-2.594	3.3569	2.8992	2.594	-1.9836	-3.0518	1.8311	0.3052	-2.7466	5.3406	-1.2207	7.3242	741.5938	1
0.4578	4.5776	1.0681	-5.0354	2.7466	2.7466	-2.7466	4.2725	3.3569	3.3569	-1.9836	-3.6621	3.3569	0	-1.9836	5.6457	-2.594	9.1553	741.6094	1
3.3569	4.1199	-0.7629	-4.1199	2.2888	2.8992	-2.2888	4.8828	5.3406	3.2043	-3.6621	-2.2888	2.8992	0.3052	-2.2888	6.8664	-4.425	11.5967	741.625	1
2.2888	4.1199	-1.3733	-3.9673	2.2888	1.3733	-1.0681	4.7302	5.0354	2.594	-3.9673	-2.594	3.0518	0.4578	-2.1362	5.9509	-6.8664	12.8174	741.6406	1
0.3052	4.7302	-1.3733	-5.0354	0.6104	0.6104	-0.7629	4.7302	3.5095	1.9836	-3.3569	-3.5095	1.5259	-0.3052	-2.4414	6.4087	-4.5776	9.4604	741.6562	1
0	4.2725	0.7629	-5.188	0.6104	2.1362	-2.8992	5.0354	3.2043	2.594	-2.2888	-3.6621	1.2207	0.4578	-2.1362	5.3406	-3.3569	8.0872	741.6719	1
1.2207	3.9673	1.2207	-3.8147	2.1362	2.8992	-2.7466	5.4932	4.425	3.9673	-3.3569	-2.4414	3.2043	-0.7629	-0.7629	6.1035	-3.3569	9.0027	741.6875	1
2.4414	5.188	-1.0681	-4.7302	2.1362	1.8311	-0.9155	6.1035	4.425	3.3569	-3.2043	-2.7466	3.2043	1.3733	-1.8311	6.4087	-4.2725	10.2234	741.7031	1
1.0681	4.1199	-0.1526	-3.9673	1.5259	1.2207	0.4578	6.5613	3.5095	2.594	-3.3569	-1.6785	3.2043	-0.1526	-0.9155	7.6294	-5.0354	10.376	741.7188	1
0.9155	3.0518	2.1362	-2.2888	2.4414	2.2888	-0.1526	7.782	3.8147	1.9836	-0.7629	-1.2207	2.8992	2.2888	0.1526	7.019	-3.9673	10.6811	741.7344	1
0.3052	3.2043	1.8311	-3.9673	1.9836	2.8992	-3.0518	6.8664	3.3569	1.6785	-1.2207	-2.4414	3.3569	2.4414	-2.2888	5.188	-2.7466	9.613	741.75	1
2.8992	2.594	1.3733	-3.2043	2.8992	3.0518	-1.5259	6.5613	5.188	3.5095	-2.4414	-2.594	3.5095	2.2888	-0.9155	6.1035	-2.4414	8.6975	741.7656	1
3.2043	3.8147	-0.4578	-2.1362	2.4414	3.2043	-1.6785	6.4087	5.188	3.2043	-3.0518	-0.9155	4.425	0.1526	0	5.7983	-1.6785	8.3923	741.7812	1
0.9155	4.5776	0	-3.6621	2.4414	1.9836	-1.0681	6.4087	3.5095	2.8992	-2.2888	-2.2888	4.425	-0.6104	0.1526	5.7983	-2.2888	8.6975	741.7969	1
0.1526	3.9673	1.5259	-3.9673	0.9155	3.5095	-1.6785	6.7139	3.3569	2.7466	-1.3733	-3.0518	3.3569	-0.1526	-0.1526	6.4087	-1.8311	9.613	741.8125	1
1.3733	4.1199	0.7629	-2.7466	1.0681	4.5776	-2.4414	6.2561	5.188	1.8311	-0.6104	-2.8992	3.8147	0	0	5.6457	-1.6785	8.5449	741.8281	1
3.3569	3.5095	0.1526	-0.3052	2.2888	3.2043	-0.9155	6.5613	6.1035	2.7466	-2.1362	0	4.8828	-0.6104	0.3052	6.5613	-1.0681	8.0872	741.8438	1
2.7466	4.2725	-0.7629	-1.9836	1.8311	2.2888	-0.6104	6.8664	5.188	2.4414	-2.594	-0.7629	3.9673	-0.7629	0.4578	6.7139	-1.2207	8.3923	741.8594	1
1.0681	3.9673	0	-2.7466	0.6104	1.8311	-0.6104	7.1716	3.9673	2.1362	-1.6785	-2.1362	2.2888	-0.3052	0	7.019	-1.8311	8.8501	741.875	1
0.6104	4.2725	0.7629	-2.7466	1.9836	1.3733	-1.3733	7.6294	4.7302	1.9836	-1.5259	-2.2888	3.3569	-0.4578	0.4578	6.2561	-2.8992	9.9182	741.8906	1
2.8992	4.2725	0.1526	-2.1362	2.7466	2.594	-1.0681	6.8664	5.7983	2.2888	-0.7629	-2.1362	4.8828	-0.7629	0.7629	6.2561	-5.188	12.8174	741.9062	1
3.8147	4.2725	-0.9155	-1.9836	2.2888	1.6785	0	6.7139	5.9509	2.4414	-1.5259	-1.6785	4.425	-0.1526	0.4578	5.9509	-5.4932	13.5803	741.9219	1
2.8992	4.1199	-0.7629	-2.4414	1.0681	0.9155	0.4578	5.9509	4.8828	1.3733	-1.3733	-1.0681	3.6621	-0.4578	0	5.188	-4.8828	12.207	741.9375	1
0.9155	5.9509	-1.3733	-1.8311	0.9155	1.5259	-0.3052	5.188	5.3406	0.7629	-0.7629	-1.6785	3.0518	-0.7629	0.9155	4.1199	-2.7466	9.9182	741.9531	1
2.8992	5.188	-0.7629	-1.3733	1.2207	2.1362	-0.7629	6.4087	7.019	0.9155	-0.4578	-1.5259	3.2043	-0.3052	1.0681	5.0354	-1.8311	9.1553	741.9688	1
4.425	4.425	-1.5259	0.9155	1.8311	2.8992	-1.8311	6.5613	7.6294	1.6785	-1.3733	0.3052	4.5776	-0.4578	0.9155	4.425	-4.1199	11.1389	741.9844	1
3.2043	2.2888	-1.6785	-10.0708	10.6811	-8.0872	-34.79	18.3105	-0.7629	3.8147	-3.5095	-5.7983	0	-18.9209	-11.2915	16.3269	-5.4932	-13.5803	953	1
0.1526	1.5259	0	-10.0708	8.8501	-9.3079	-33.7219	18.7683	-4.1199	3.9673	-2.1362	-6.1035	-0.7629	-19.5312	-11.4441	16.3269	-6.7139	-12.6648	953.0156	1
-0.1526	0.7629	0.4578	-9.9182	9.3079	-9.3079	-34.4848	20.2942	-4.2725	4.8828	-1.3733	-8.0872	-0.9155	-17.395	-12.3596	16.4795	-9.613	-10.5286	953.0312	1
1.3733	1.0681	-0.4578	-8.3923	10.2234	-9.1553	-33.4167	19.3786	-2.2888	5.188	-2.7466	-6.5613	-0.1526	-17.5476	-11.9018	16.6321	-8.8501	-10.0708	953.0469	1
2.594	1.0681	-1.2207	-7.782	10.376	-8.3923	-32.5012	20.1416	-1.6785	5.4932	-2.594	-6.5613	0.1526	-16.9372	-11.1389	17.5476	-7.4768	-10.6811	953.0625	1
0.1526	0.6104	-1.6785	-7.782	9.613	-10.2234	-33.2641	18.3105	-5.188	2.7466	-2.1362	-4.1199	1.6785	-16.4795	-14.801	14.0381	-5.9509	-13.7329	953.0781	1
-0.6104	-0.4578	-0.1526	-10.2234	8.5449	-9.7656	-33.7219	18.7683	-4.425	4.2725	-2.8992	-8.3923	-0.4578	-18.6157	-12.8174	15.7165	-2.7466	-18.3105	953.0938	1
-0.1526	-0.6104	0.1526	-9.4604	8.2397	-9.3079	-34.0271	19.6838	-2.1362	2.8992	-2.8992	-7.9346	-0.9155	-18.6157	-12.5122	16.6321	-3.8147	-17.2424	953.1094	1
2.8992	-0.4578	-1.6785	-7.6294	9.7656	-10.376	-32.196	20.2942	-0.3052	1.6785	-2.2888	-5.9509	1.0681	-17.5476	-13.1225	17.0898	-8.0872	-11.4441	953.125	1
3.3569	-2.594	-2.2888	-5.4932	10.0708	-11.2915	-31.5857	20.2942	-1.9836	-0.7629	-1.5259	-2.7466	1.2207	-16.3269	-13.1225	15.7165	-8.8501	-11.1389	953.1406	1
0	-3.6621	-0.9155	-3.0518	8.8501	-10.6811	-32.8064	21.6675	-3.3569	0.1526	-1.5259	-2.8992	0.3052	-16.3269	-12.6648	15.7165	-7.6294	-12.97	953.1562	1
-2.1362	-3.2043	-0.3052	-3.3569	7.4768	-9.9182	-33.8745	22.1252	-3.5095	2.1362	-2.8992	-4.7302	1.0681	-18.4631	-12.97	16.1743	-6.2561	-14.9536	953.1719	1
-1.0681	-1.8311	-0.7629	-1.9836	8.2397	-9.3079	-34.3322	24.2615	-1.2207	2.8992	-4.1199	-3.2043	1.3733	-18.4631	-12.207	18.1579	-5.3406	-15.7165	953.1875	1
1.0681	-0.7629	-2.594	-2.7466	8.8501	-9.3079	-33.2641	24.8718	0.4578	2.594	-5.0354	-3.0518	1.9836	-18.4631	-11.5967	19.2261	-4.2725	-15.7165	953.2031	1
1.0681	-0.9155	-3.0518	-4.425	9.0027	-11.1389	-32.196	23.6511	-0.9155	3.2043	-6.2561	-3.3569	1.8311	-18.9209	-11.7493	18.1579	-5.9509	-15.1062	953.2188	1
-0.9155	-1.6785	-1.3733	-6.1035	8.3923	-11.2915	-32.3486	23.1933	-1.9836	1.5259	-4.425	-5.188	1.0681	-18.7683	-11.9018	17.5476	-7.6294	-12.97	953.2344	1
-0.7629	-0.9155	-0.9155	-6.8664	9.0027	-9.1553	-34.9426	23.8037	-0.9155	1.6785	-4.2725	-5.9509	0.9155	-18.7683	-12.3596	18.9209	-8.2397	-11.9018	953.25	1
2.594	-1.3733	-1.9836	-5.6457	10.6811	-8.6975	-35.0952	24.7192	1.5259	2.1362	-5.188	-4.8828	2.7466	-18.4631	-13.1225	20.4468	-7.9346	-13.1225	953.2656	1
4.1199	-1.2207	-3.5095	-5.188	11.1389	-9.4604	-32.959	24.7192	2.2888	2.2888	-5.9509	-4.425	3.6621	-18.1579	-11.7493	19.6838	-5.3406	-16.1743	953.2812	1
1.3733	-0.7629	-3.2043	-5.9509	9.1553	-10.6811	-33.5693	25.0244	0.3052	1.8311	-5.188	-5.4932	2.1362	-18.4631	-12.207	18.4631	-2.4414	-19.8364	953.2969	1
0	-1.2207	-1.5259	-6.8664	9.3079	-10.0708	-33.4167	24.8718	-0.4578	0.4578	-3.0518	-6.5613	2.2888	-18.7683	-12.3596	19.5312	-2.1362	-19.5312	953.3125	1
1.6785	-0.9155	-1.9836	-5.4932	9.9182	-9.4604	-33.7219	26.0925	1.0681	2.1362	-3.8147	-6.1035	2.4414	-17.2424	-12.3596	19.989	-5.0354	-16.3269	953.3281	1
3.6621	-1.2207	-2.594	-4.2725	11.2915	-8.6975	-34.4848	26.2451	3.0518	1.6785	-4.5776	-4.5776	2.4414	-15.7165	-12.5122	20.1416	-7.019	-14.9536	953.3438	1
2.594	-1.8311	-2.7466	-4.7302	10.9863	-9.613	-33.5693	25.4822	1.2207	1.9836	-5.4932	-4.425	2.8992	-16.1743	-12.8174	19.3786	-7.6294	-16.0217	953.3594	1
0.3052	-1.6785	-1.5259	-5.3406	9.613	-9.613	-34.79	25.6347	0.1526	0.9155	-5.0354	-4.2725	1.8311	-16.1743	-13.1225	18.3105	-7.6294	-17.2424	953.375	1
-0.4578	-0.7629	-1.2207	-5.6457	10.0708	-7.4768	-36.3159	25.9399	0	1.2207	-3.6621	-5.6457	2.7466	-16.7847	-12.97	19.2261	-3.9673	-19.8364	953.3906	1
1.5259	0.4578	-2.1362	-5.7983	10.2234	-6.2561	-34.6374	25.0244	0.9155	3.6621	-4.5776	-5.9509	2.7466	-15.4114	-12.5122	19.5312	-0.7629	-20.9045	953.4062	1
2.594	0.9155	-3.5095	-5.3406	9.7656	-6.5613	-33.8745	25.3296	0.6104	3.9673	-4.7302	-5.188	2.7466	-14.9536	-12.5122	19.3786	-1.0681	-19.6838	953.4219	1
0.9155	0.6104	-4.2725	-4.8828	9.1553	-7.6294	-32.8064	24.2615	-1.3733	0.1526	-3.2043	-3.2043	2.7466	-14.3433	-12.6648	17.2424	-3.0518	-17.8528	953.4375	1
-1.8311	-1.0681	-2.594	-3.8147	9.1553	-6.2561	-33.5693	24.5666	-1.6785	-1.6785	-1.8311	-4.1199	3.6621	-14.1907	-12.6648	17.0898	-3.9673	-15.8691	953.4531	1
-0.7629	-2.2888	-1.8311	-2.2888	9.0027	-5.3406	-33.4167	25.7873	-1.5259	1.0681	-2.1362	-4.5776	3.3569	-13.2751	-11.5967	17.5476	-4.2725	-16.0217	953.4688	1
1.3733	-1.8311	-1.9836	-0.7629	9.9182	-5.6457	-31.8908	25.6347	-1.2207	3.3569	-2.594	-2.7466	4.2725	-12.8174	-11.5967	18.1579	-3.9673	-16.0217	953.4844	1
0.7629	-1.0681	-2.4414	-3.8147	10.0708	-5.6457	-31.1279	23.8037	-1.6785	4.1199	-4.425	-4.5776	4.2725	-12.5122	-11.2915	16.6321	-2.7466	-16.9372	953.5	1
-1.3733	-1.3733	-2.7466	-4.425	8.2397	-5.0354	-32.3486	23.1933	-3.3569	3.2043	-3.5095	-6.2561	3.2043	-13.2751	-11.4441	15.564	-3.8147	-17.0898	953.5156	1
-1.3733	-0.3052	-0.9155	-4.5776	8.8501	-4.7302	-31.7383	23.9563	-1.2207	2.594	-1.8311	-6.7139	3.2043	-13.4277	-9.613	16.1743	-4.5776	-14.801	953.5312	1
0.7629	-0.4578	-2.2888	-5.188	8.5449	-4.8828	-32.0434	22.4304	-0.6104	-0.3052	-1.5259	-4.7302	5.4932	-11.1389	-13.4277	13.1225	-7.1716	-12.6648	953.5469	1
1.9836	-1.0681	-3.0518	-4.425	10.2234	-5.3406	-30.2124	22.8882	0.3052	1.2207	-2.7466	-5.3406	5.9509	-12.8174	-10.8337	15.2588	-7.6294	-12.207	953.5625	1
-0.3052	-1.6785	-1.2207	-4.5776	7.782	-5.7983	-28.9917	23.0408	-2.1362	2.594	-3.0518	-5.188	3.8147	-12.0544	-10.6811	14.9536	-6.1035	-14.1907	953.5781	1
-2.7466	-1.5259	-0.1526	-4.8828	6.5613	-5.7983	-30.0598	21.9726	-2.4414	1.5259	-3.2043	-5.188	2.2888	-12.3596	-10.8337	13.5803	-4.7302	-16.1743	953.5938	1
-2.1362	-1.2207	-0.4578	-5.7983	6.5613	-4.7302	-30.365	22.7356	-1.8311	0.7629	-2.1362	-6.4087	2.8992	-12.6648	-10.0708	14.0381	-3.9673	-16.6321	953.6094	1
1.5259	-1.3733	-1.9836	-4.7302	7.019	-4.2725	-28.5339	21.9726	0.1526	1.0681	-2.1362	-5.6457	4.2725	-11.7493	-10.9863	14.6484	-6.4087	-13.8855	953.625	1
1.9836	-2.4414	-1.0681	-5.6457	7.6294	-5.7983	-27.1606	22.4304	0.4578	1.0681	-2.8992	-5.7983	5.3406	-12.0544	-10.5286	14.3433	-7.6294	-13.1225	953.6406	1
-1.0681	-3.2043	0.4578	-5.0354	5.9509	-5.7983	-27.9236	23.8037	-3.0518	2.1362	-3.0518	-4.8828	4.2725	-12.3596	-10.5286	14.6484	-6.5613	-14.801	953.6562	1
-2.2888	-2.2888	1.2207	-4.8828	4.425	-4.5776	-27.4658	24.2615	-3.6621	2.1362	-1.5259	-5.188	3.6621	-12.8174	-10.0708	15.8691	-4.7302	-15.564	953.6719	1
0.1526	-0.7629	-0.1526	-5.3406	6.7139	-4.5776	-27.6184	25.0244	-1.6785	3.3569	-2.1362	-5.6457	4.7302	-12.0544	-9.7656	16.6321	-3.3569	-16.0217	953.6875	1
2.1362	0.7629	-2.2888	-4.8828	7.019	-6.2561	-26.3977	26.0925	0.3052	4.7302	-5.188	-4.1199	4.8828	-11.9018	-9.9182	17.395	-2.1362	-18.6157	953.7031	1
1.8311	-1.0681	-1.9836	-4.425	5.9509	-7.1716	-25.3296	24.5666	-1.3733	4.8828	-4.5776	-4.5776	4.2725	-12.5122	-10.5286	16.7847	-3.8147	-18.0054	953.7188	1
-1.2207	-2.1362	-1.6785	-3.5095	5.9509	-5.7983	-27.6184	25.6347	-4.7302	0.4578	-1.5259	-2.7466	4.1199	-10.9863	-10.9863	16.0217	-6.1035	-17.0898	953.7344	1
-2.1362	-2.1362	-1.5259	-1.0681	5.188	-4.2725	-27.9236	25.9399	-3.5095	0.6104	-1.9836	-1.9836	4.1199	-10.5286	-10.6811	16.0217	-6.4087	-15.564	953.75	1
1.5259	-1.6785	-4.2725	0.7629	6.2561	-5.6457	-27.1606	27.4658	-0.1526	1.6785	-3.9673	-1.2207	5.188	-10.6811	-11.4441	17.8528	-4.1199	-18.6157	953.7656	1
5.0354	0	-8.6975	-0.1526	4.8828	-5.9509	-25.9399	27.1606	2.8992	-0.1526	-5.188	-1.3733	4.1199	-11.4441	-11.4441	18.9209	-0.3052	-23.1933	953.7812	1
5.7983	0.4578	-13.1225	-1.3733	5.6457	-7.1716	-26.8554	26.0925	4.7302	-4.8828	-5.3406	-2.7466	3.5095	-11.4441	-11.7493	17.395	1.3733	-26.7029	953.7969	1
4.425	2.4414	-14.4958	-2.8992	5.4932	-7.6294	-27.008	25.7873	3.0518	-4.425	-5.4932	-3.6621	3.3569	-11.1389	-12.5122	16.9372	1.6785	-26.8554	953.8125	1
5.4932	4.2725	-13.8855	-4.1199	5.3406	-4.7302	-28.6865	25.6347	4.7302	-4.2725	-4.8828	-3.8147	3.6621	-10.376	-12.5122	16.7847	-0.7629	-23.9563	953.8281	1
8.3923	7.019	-15.4114	-6.4087	6.4087	-6.4087	-27.3132	26.7029	7.019	-3.6621	-6.5613	-3.2043	4.425	-10.5286	-11.5967	17.0898	-3.8147	-21.6675	953.8438	1
7.019	9.0027	-15.564	-9.3079	6.1035	-7.019	-27.6184	27.771	5.7983	-2.4414	-7.6294	-4.5776	4.2725	-11.1389	-11.7493	17.8528	-4.5776	-21.6675	953.8594	1
4.5776	11.2915	-15.2588	-9.7656	5.0354	-8.2397	-27.771	27.1606	4.1199	-0.1526	-8.6975	-4.425	2.8992	-11.1389	-11.9018	16.3269	-2.8992	-24.2615	953.875	1
4.1199	12.0544	-13.7329	-11.1389	5.3406	-6.8664	-28.9917	28.3813	4.425	0.7629	-7.3242	-6.5613	3.2043	-9.9182	-12.5122	17.0898	0	-25.9399	953.8906	1
4.7302	11.7493	-13.2751	-9.0027	5.6457	-6.1035	-27.9236	27.4658	4.5776	1.6785	-6.5613	-5.4932	3.9673	-9.613	-12.3596	17.0898	1.2207	-25.6347	953.9062	1
5.6457	12.5122	-13.2751	-7.019	5.3406	-6.5613	-26.0925	28.2287	4.7302	3.2043	-5.9509	-4.1199	3.5095	-9.4604	-11.7493	18.6157	-0.9155	-22.2778	953.9219	1
2.7466	12.207	-11.1389	-7.9346	5.0354	-6.5613	-25.3296	27.3132	2.4414	3.6621	-5.3406	-4.8828	3.9673	-8.8501	-11.7493	17.0898	-2.7466	-19.6838	953.9375	1
0.9155	12.5122	-8.5449	-8.5449	3.9673	-5.9509	-26.3977	27.3132	1.0681	4.2725	-3.8147	-5.188	3.0518	-8.0872	-11.5967	15.564	-4.1199	-18.0054	953.9531	1
1.6785	11.1389	-5.6457	-8.6975	5.4932	-5.7983	-25.4822	26.5503	0	6.2561	-2.7466	-5.0354	4.7302	-8.2397	-10.9863	15.2588	-3.8147	-16.7847	953.9688	1
3.0518	13.8855	-5.188	-9.3079	6.1035	-3.9673	-26.5503	27.008	0.3052	8.0872	-1.8311	-4.1199	5.4932	-8.5449	-11.1389	16.7847	-3.3569	-16.0217	953.9844	1
-14.9536	-9.613	-47.76	40.4358	13.2751	0.7629	-57.2204	8.5449	-13.2751	-21.3623	-7.1716	9.9182	7.019	-15.2588	-22.7356	-3.6621	0.4578	-39.8254	1178	1
-11.4441	-9.1553	-50.8117	41.809	13.1225	1.9836	-57.5256	8.5449	-10.9863	-21.6675	-6.8664	9.9182	6.5613	-14.9536	-22.1252	-3.3569	3.2043	-40.4358	1178.0156	1
-8.2397	-10.2234	-51.1169	43.6401	13.4277	0	-53.7109	8.5449	-8.3923	-21.9726	-8.5449	12.97	7.4768	-14.4958	-21.9726	-2.7466	4.2725	-41.5039	1178.0312	1
-14.6484	-7.9346	-48.3703	42.1142	12.3596	-0.4578	-54.4738	10.6811	-12.5122	-20.4468	-6.8664	10.9863	6.1035	-14.1907	-22.2778	-1.5259	4.2725	-41.9616	1178.0469	1
-16.1743	-9.0027	-45.0134	41.809	11.1389	-0.3052	-53.8635	9.4604	-13.2751	-19.5312	-5.9509	10.376	6.5613	-15.2588	-21.3623	-3.5095	4.425	-40.2832	1178.0625	1
-15.8691	-8.5449	-45.4712	40.8935	11.5967	0.7629	-55.3894	9.7656	-12.8174	-19.5312	-5.7983	9.1553	6.4087	-13.4277	-22.583	-3.6621	3.5095	-40.2832	1178.0781	1
-12.97	-9.3079	-45.4712	43.6401	12.5122	1.2207	-55.6945	9.613	-9.9182	-18.7683	-7.1716	11.7493	7.019	-13.2751	-22.4304	-3.6621	2.2888	-38.2995	1178.0938	1
-12.207	-9.1553	-46.6919	42.572	11.9018	1.0681	-55.2368	11.2915	-10.5286	-17.7002	-8.5449	11.2915	6.7139	-13.2751	-22.1252	-2.2888	-0.4578	-34.9426	1178.1094	1
-15.2588	-7.3242	-46.6919	41.6565	12.207	0.1526	-53.4057	11.2915	-12.6648	-17.7002	-7.9346	10.6811	6.5613	-12.6648	-21.2097	-2.4414	3.0518	-35.7055	1178.125	1
-14.9536	-5.6457	-45.6237	43.1823	13.2751	1.2207	-53.1005	13.1225	-10.376	-16.1743	-6.4087	9.9182	7.019	-11.9018	-19.2261	-1.3733	5.4932	-37.9944	1178.1406	1
-14.3433	-6.4087	-46.2341	42.4194	12.3596	0.3052	-53.1005	11.7493	-10.6811	-17.7002	-7.6294	11.4441	9.4604	-11.2915	-23.9563	-2.8992	5.9509	-39.0625	1178.1562	1
-11.4441	-5.188	-46.997	42.7246	13.5803	-1.6785	-52.0324	14.1907	-7.6294	-14.4958	-10.0708	11.2915	9.4604	-11.9018	-23.3459	-0.1526	6.8664	-41.809	1178.1719	1
-12.3596	-5.9509	-46.0815	41.3513	10.8337	-3.3569	-51.7273	14.1907	-8.6975	-16.1743	-7.782	9.613	6.8664	-12.3596	-24.1089	-0.4578	7.3242	-44.403	1178.1875	1
-14.9536	-4.8828	-46.2341	41.6565	10.5286	-1.9836	-53.8635	14.4958	-10.0708	-15.4114	-8.8501	9.9182	6.5613	-12.207	-24.7192	-0.4578	7.019	-44.5556	1178.2031	1
-14.3433	-5.4932	-45.4712	41.9616	9.4604	-1.6785	-54.1687	14.0381	-7.9346	-17.2424	-7.9346	9.7656	6.1035	-11.7493	-25.3296	-1.3733	4.7302	-40.4358	1178.2188	1
-12.207	-5.7983	-46.5393	42.2668	10.376	-1.9836	-52.4902	13.5803	-6.7139	-16.1743	-9.4604	10.0708	7.9346	-12.3596	-24.1089	-1.9836	1.8311	-35.8581	1178.2344	1
-12.0544	-5.9509	-47.9126	41.5039	9.3079	-2.594	-49.8962	11.4441	-7.3242	-16.7847	-10.376	10.0708	7.6294	-12.3596	-23.3459	-3.6621	2.1362	-36.0107	1178.25	1
-16.1743	-5.0354	-45.9289	40.4358	7.6294	-1.8311	-50.354	11.2915	-10.9863	-16.4795	-8.6975	9.4604	5.9509	-12.207	-22.4304	-4.5776	4.7302	-37.9944	1178.2656	1
-17.8528	-3.2043	-45.4712	41.1987	8.5449	-1.8311	-49.2859	12.207	-11.4441	-15.4114	-7.9346	9.4604	7.782	-12.207	-20.9045	-5.0354	4.8828	-36.4685	1178.2812	1
-18.3105	-1.5259	-44.5556	41.0461	7.6294	-1.2207	-49.2859	11.5967	-11.9018	-12.6648	-8.5449	9.7656	6.2561	-10.8337	-20.1416	-6.5613	4.425	-36.0107	1178.2969	1
-13.7329	-0.7629	-45.4712	40.8935	8.0872	-0.3052	-48.8281	13.1225	-8.2397	-12.3596	-9.1553	10.6811	7.4768	-10.0708	-20.9045	-4.425	6.1035	-37.384	1178.3125	1
-12.6648	0.6104	-46.6919	38.9099	8.8501	-1.0681	-50.0488	13.5803	-8.3923	-11.5967	-9.3079	9.4604	7.9346	-10.8337	-20.2942	-5.4932	7.1716	-39.6728	1178.3281	1
-13.1225	0	-47.1496	37.9944	7.9346	-3.5095	-49.2859	13.1225	-9.1553	-12.3596	-9.3079	8.5449	6.4087	-10.8337	-20.1416	-7.1716	4.425	-37.0788	1178.3438	1
-13.1225	0	-46.8444	38.6047	7.4768	-2.1362	-48.6755	12.3596	-6.2561	-14.9536	-8.6975	8.5449	7.782	-11.2915	-19.3786	-8.0872	3.8147	-34.9426	1178.3594	1
-12.3596	0.9155	-47.1496	39.5202	7.4768	-2.8992	-47.1496	13.5803	-3.3569	-17.2424	-8.6975	10.2234	7.019	-9.613	-18.1579	-8.2397	4.1199	-34.79	1178.375	1
-12.5122	1.0681	-47.6074	39.2151	7.782	-4.1199	-45.3186	13.4277	-4.7302	-14.6484	-11.2915	10.8337	7.1716	-8.6975	-17.7002	-9.0027	3.2043	-35.7055	1178.3906	1
-17.0898	1.8311	-46.6919	37.6892	6.1035	-3.5095	-48.3703	13.4277	-7.9346	-14.3433	-10.376	8.3923	5.3406	-8.3923	-17.395	-11.9018	3.8147	-36.6211	1178.4062	1
-16.9372	2.2888	-45.7763	37.8418	5.4932	-4.7302	-46.997	14.0381	-6.5613	-12.97	-11.7493	8.6975	5.4932	-8.6975	-18.7683	-10.2234	4.2725	-38.1469	1178.4219	1
-14.3433	3.5095	-47.4548	38.2995	6.7139	-2.7466	-49.1333	14.4958	-4.8828	-12.8174	-10.6811	8.3923	6.5613	-9.4604	-18.6157	-9.1553	4.2725	-36.4685	1178.4375	1
-8.6975	6.1035	-52.6428	37.6892	7.782	-2.4414	-47.3022	15.564	0	-14.6484	-12.6648	9.7656	8.0872	-9.0027	-18.6157	-6.8664	5.188	-35.4004	1178.4531	1
-7.782	7.3242	-55.0842	36.1633	7.9346	-3.5095	-45.0134	15.8691	0.1526	-15.8691	-13.4277	9.7656	8.0872	-9.1553	-18.3105	-5.3406	4.1199	-34.6374	1178.4688	1
-9.613	4.7302	-50.6591	34.9426	5.9509	-3.3569	-45.9289	16.1743	-1.9836	-15.564	-10.5286	7.4768	6.5613	-10.5286	-18.3105	-4.8828	4.8828	-34.9426	1178.4844	1
-11.4441	2.594	-46.5393	34.9426	5.3406	-2.2888	-45.6237	15.4114	-1.9836	-16.7847	-9.0027	7.3242	5.6457	-9.4604	-18.9209	-4.425	7.1716	-35.4004	1178.5	1
-11.9018	-1.5259	-43.3349	35.7055	6.1035	-1.5259	-46.3867	15.1062	-3.6621	-17.395	-7.4768	7.4768	6.1035	-8.8501	-19.2261	-4.7302	6.7139	-36.3159	1178.5156	1
-10.8337	-0.6104	-43.4875	36.9262	7.4768	-1.6785	-43.9453	14.4958	-3.8147	-15.2588	-7.6294	8.6975	7.3242	-9.0027	-18.7683	-3.2043	6.2561	-35.4004	1178.5312	1
-15.2588	0.9155	-40.5883	35.2478	6.2561	-2.594	-43.9453	13.7329	-9.0027	-12.97	-5.0354	7.3242	5.3406	-9.0027	-18.4631	-4.425	5.9509	-34.3322	1178.5469	1
-16.4795	2.594	-38.4521	35.553	5.7983	-2.8992	-42.2668	13.2751	-11.9018	-7.6294	-4.425	7.1716	5.188	-8.6975	-18.4631	-4.1199	7.019	-32.8064	1178.5625	1
-16.4795	3.6621	-37.0788	36.0107	5.4932	0	-42.2668	14.3433	-13.1225	-4.2725	-3.6621	7.1716	5.7983	-8.2397	-18.6157	-1.3733	7.1716	-30.2124	1178.5781	1
-14.1907	3.8147	-37.384	38.4521	6.7139	0.3052	-41.5039	15.7165	-12.6648	-1.9836	-4.2725	9.613	7.4768	-7.9346	-17.8528	-0.4578	4.7302	-25.4822	1178.5938	1
-14.0381	4.2725	-36.4685	38.1469	7.019	-1.6785	-37.2314	18.0054	-11.2915	-1.8311	-2.8992	7.9346	7.6294	-7.3242	-15.8691	1.6785	5.4932	-26.8554	1178.6094	1
-18.9209	1.5259	-33.4167	36.3159	4.1199	-5.3406	-37.0788	15.564	-17.7002	-3.2043	-3.8147	10.2234	6.7139	-5.4932	-19.8364	-4.1199	5.3406	-29.2969	1178.625	1
-19.8364	0.7629	-32.0434	36.4685	3.0518	-3.8147	-38.1469	18.0054	-15.8691	-2.4414	-4.2725	7.9346	3.6621	-7.4768	-19.989	2.8992	6.2561	-31.2805	1178.6406	1
-17.395	-1.0681	-32.0434	36.0107	3.0518	-1.9836	-38.4521	15.7165	-14.1907	-3.2043	-4.1199	7.019	4.8828	-9.0027	-21.2097	3.6621	6.5613	-30.6701	1178.6562	1
-13.8855	-0.4578	-32.959	36.4685	2.7466	-3.3569	-35.4004	16.9372	-10.6811	-2.1362	-6.7139	8.6975	4.8828	-9.1553	-22.7356	7.9346	5.7983	-29.602	1178.6719	1
-16.6321	0.4578	-31.7383	34.3322	-0.4578	-1.3733	-37.6892	17.395	-12.6648	-2.2888	-6.4087	7.782	2.7466	-10.0708	-22.8882	8.0872	4.5776	-28.6865	1178.6875	1
-17.395	0.7629	-32.0434	33.7219	-0.7629	-3.5095	-36.1633	18.1579	-11.5967	-3.6621	-6.4087	6.7139	2.8992	-11.4441	-23.3459	9.613	4.7302	-28.3813	1178.7031	1
-18.6157	1.5259	-30.8227	34.0271	-0.7629	-2.7466	-36.3159	17.5476	-11.2915	-2.7466	-6.2561	6.4087	3.0518	-11.1389	-23.3459	9.1553	4.425	-28.0761	1178.7188	1
-17.5476	2.2888	-31.2805	35.2478	0.6104	-2.594	-35.0952	18.3105	-10.0708	-2.1362	-6.7139	7.6294	4.2725	-10.6811	-22.4304	10.0708	5.6457	-27.3132	1178.7344	1
-16.4795	1.9836	-31.7383	34.9426	-1.0681	-1.9836	-34.1797	20.7519	-10.0708	-1.8311	-7.019	7.6294	4.8828	-11.2915	-21.5149	11.4441	7.3242	-29.2969	1178.75	1
-18.7683	2.4414	-30.8227	33.5693	-1.2207	-3.2043	-33.5693	21.8201	-12.5122	-1.0681	-6.7139	6.7139	3.8147	-12.207	-19.5312	11.7493	9.7656	-31.8908	1178.7656	1
-17.7002	1.9836	-31.1279	36.1633	-1.3733	-0.3052	-36.1633	21.6675	-11.7493	-1.3733	-6.1035	8.5449	2.8992	-10.8337	-20.1416	11.9018	9.7656	-31.4331	1178.7812	1
-16.6321	2.7466	-31.7383	36.6211	-1.2207	-1.0681	-35.2478	22.7356	-10.0708	-1.3733	-6.4087	8.8501	3.8147	-10.376	-20.2942	12.0544	8.0872	-28.0761	1178.7969	1
-12.8174	3.9673	-34.0271	37.2314	-0.4578	-1.9836	-32.8064	22.583	-6.5613	-1.2207	-7.3242	9.4604	5.188	-10.376	-18.4631	10.9863	6.2561	-25.0244	1178.8125	1
-12.97	3.9673	-35.0952	37.8418	-2.1362	-1.8311	-32.3486	23.0408	-6.8664	-1.6785	-8.0872	10.376	4.425	-10.0708	-19.5312	11.9018	6.4087	-26.5503	1178.8281	1
-16.1743	4.7302	-33.8745	36.4685	-3.0518	-3.0518	-33.1115	25.177	-7.4768	-1.8311	-7.9346	8.3923	2.4414	-9.7656	-20.1416	13.4277	6.1035	-25.4822	1178.8438	1
-17.0898	6.2561	-34.4848	36.9262	-2.594	-2.8992	-31.7383	23.1933	-5.188	-4.1199	-8.2397	9.1553	4.1199	-11.1389	-19.8364	12.8174	6.7139	-26.2451	1178.8594	1
-13.2751	10.6811	-43.9453	38.7573	-2.8992	-2.1362	-34.1797	24.414	-4.1199	-5.3406	-10.2234	11.9018	3.3569	-10.0708	-19.8364	11.7493	6.7139	-27.4658	1178.875	1
-9.3079	13.5803	-50.0488	36.0107	-1.8311	-2.8992	-32.6538	24.5666	-1.5259	-6.5613	-12.8174	11.1389	5.0354	-10.6811	-18.3105	11.1389	8.0872	-31.1279	1178.8906	1
-12.6648	9.3079	-41.5039	34.3322	-4.5776	-3.8147	-30.365	23.8037	-5.188	-5.0354	-9.7656	9.4604	2.1362	-9.4604	-18.4631	10.8337	7.4768	-29.1443	1178.9062	1
-15.8691	6.4087	-36.4685	37.2314	-3.5095	-2.594	-32.196	22.7356	-7.6294	-5.3406	-5.188	9.4604	2.8992	-9.613	-19.0735	10.2234	6.8664	-28.0761	1178.9219	1
-14.6484	3.3569	-32.6538	37.384	-4.1199	-2.4414	-32.3486	22.8882	-7.019	-5.0354	-3.3569	8.8501	2.594	-9.613	-19.2261	10.2234	6.5613	-27.771	1178.9375	1
-12.5122	3.3569	-32.959	38.2995	-3.3569	-3.2043	-30.5176	23.0408	-5.6457	-3.9673	-3.9673	9.7656	3.5095	-9.613	-19.3786	11.4441	4.7302	-26.7029	1178.9531	1
-15.4114	3.0518	-31.2805	37.8418	-4.425	-3.6621	-28.8391	23.4985	-7.6294	-3.2043	-5.188	10.2234	2.7466	-8.6975	-20.1416	12.6648	3.2043	-21.3623	1178.9688	1
-19.0735	2.7466	-29.602	37.9944	-6.2561	-4.1199	-29.9072	23.8037	-10.5286	-2.8992	-5.3406	10.8337	0.7629	-9.0027	-20.5993	12.3596	2.8992	-23.1933	1178.9844	1
-8.3923	-2.8992	0.6104	-1.5259	-20.9045	-4.2725	-3.2043	-1.0681	-8.3923	-4.1199	2.4414	-2.1362	-10.9863	-12.207	-3.0518	-3.2043	-12.8174	-1.2207	1593	1
-3.6621	-3.2043	-1.6785	1.2207	-22.583	-7.782	-0.3052	-1.2207	-5.0354	-4.2725	0	1.9836	-14.4958	-11.4441	-3.9673	-1.9836	-14.9536	1.6785	1593.0156	1
-4.5776	-2.8992	-2.7466	0.1526	-30.8227	-6.5613	0.1526	-1.9836	-4.8828	-5.3406	-0.6104	0.7629	-21.0571	-10.8337	-5.3406	-1.9836	-12.6648	-1.5259	1593.0312	1
-4.5776	-3.2043	-1.8311	-0.6104	-21.3623	-7.019	-1.8311	-3.3569	-3.8147	-6.2561	0.9155	-1.0681	-12.97	-11.7493	-5.3406	-3.5095	-10.0708	-4.1199	1593.0469	1
-7.782	-2.8992	-1.2207	0.6104	-21.6675	-5.6457	-2.7466	-1.6785	-5.6457	-6.5613	2.594	-1.6785	-11.5967	-12.0544	-5.0354	-3.0518	-9.1553	-4.8828	1593.0625	1
-4.8828	-3.6621	-0.9155	1.6785	-19.8364	-8.5449	-1.5259	-2.2888	-3.5095	-5.4932	1.3733	-0.1526	-11.9018	-12.0544	-4.5776	-3.6621	-12.207	-2.1362	1593.0781	1
-3.8147	-4.2725	-0.7629	2.4414	-15.1062	-10.2234	0	-2.2888	-4.2725	-3.9673	-0.3052	2.1362	-9.7656	-10.5286	-3.8147	-3.5095	-11.9018	-1.2207	1593.0938	1
-3.2043	-3.3569	-0.4578	1.5259	-18.0054	-6.7139	-0.1526	-3.5095	-2.8992	-3.0518	-0.7629	1.2207	-9.0027	-10.0708	-5.3406	-3.9673	-11.2915	-0.9155	1593.1094	1
-7.9346	-4.8828	0.4578	1.8311	-17.7002	-8.3923	-1.6785	-3.2043	-8.2397	-3.8147	1.0681	0.4578	-9.7656	-11.5967	-5.4932	-4.1199	-11.1389	0.3052	1593.125	1
-6.7139	-3.5095	-1.2207	-0.1526	-14.6484	-7.4768	-2.1362	-3.0518	-7.9346	-3.2043	2.8992	-3.3569	-5.7983	-11.4441	-5.6457	-4.425	-12.3596	0.1526	1593.1406	1
-3.9673	-5.4932	0.7629	0.1526	-17.2424	-8.0872	-0.3052	-3.8147	-5.9509	-0.3052	1.9836	-4.2725	-9.613	-10.0708	-5.4932	-4.2725	-13.8855	2.594	1593.1562	1
-5.7983	-7.3242	1.9836	4.425	-16.3269	-8.8501	0.3052	-2.7466	-7.019	0.1526	3.5095	-3.3569	-8.0872	-11.5967	-3.6621	-4.2725	-14.801	2.7466	1593.1719	1
-6.8664	-8.6975	1.6785	3.0518	-20.7519	-10.0708	-2.1362	-1.3733	-6.8664	-1.6785	1.2207	-3.5095	-14.9536	-11.2915	-5.0354	-3.0518	-13.2751	-0.9155	1593.1875	1
-5.9509	-6.5613	0.3052	0.7629	-16.6321	-10.5286	-2.7466	-1.5259	-5.9509	-1.2207	-1.3733	-2.8992	-10.376	-11.7493	-5.7983	-3.5095	-10.0708	-4.2725	1593.2031	1
-3.6621	-5.7983	-0.7629	-0.9155	-15.564	-9.4604	-3.6621	-1.9836	-4.8828	-1.3733	-4.5776	-0.3052	-9.3079	-11.2915	-5.7983	-4.2725	-9.1553	-4.5776	1593.2188	1
-3.0518	-6.1035	0.7629	-1.2207	-18.6157	-5.4932	-1.8311	-1.0681	-3.6621	-1.3733	-4.5776	0	-9.613	-11.1389	-2.8992	-3.3569	-12.207	0.6104	1593.2344	1
-4.2725	-4.5776	1.3733	2.8992	-12.5122	-7.4768	0.4578	-0.1526	-4.1199	0.1526	-1.3733	0.7629	-2.4414	-10.376	-4.2725	-2.594	-15.4114	5.4932	1593.25	1
-8.2397	-4.5776	3.3569	0.6104	-16.4795	-10.0708	-0.4578	0.1526	-5.4932	0.4578	0.1526	-3.9673	-9.0027	-11.4441	-5.4932	-0.9155	-13.4277	3.0518	1593.2656	1
-8.2397	-4.2725	3.0518	-0.7629	-18.9209	-8.0872	-1.2207	-0.4578	-6.7139	0.6104	1.0681	-5.188	-8.5449	-13.1225	-4.425	-2.594	-10.9863	-0.6104	1593.2812	1
-2.4414	-4.1199	3.0518	-2.594	-11.2915	-9.4604	-0.7629	-0.7629	-4.7302	1.9836	-0.6104	-2.7466	-2.2888	-11.2915	-5.6457	-3.0518	-9.0027	-3.8147	1593.2969	1
-0.4578	-3.6621	-0.4578	-3.0518	-17.2424	-8.5449	-1.2207	-1.3733	-4.5776	1.6785	-3.0518	-1.6785	-8.2397	-11.2915	-6.1035	-2.7466	-7.3242	-5.6457	1593.3125	1
-3.5095	-4.2725	-1.2207	-1.5259	-16.9372	-6.4087	-1.9836	-1.9836	-5.4932	-0.4578	-3.8147	-0.7629	-8.2397	-11.1389	-5.6457	-2.2888	-8.0872	-4.2725	1593.3281	1
-3.6621	-5.3406	-0.9155	-3.2043	-15.8691	-7.9346	-3.8147	-2.2888	-4.1199	-2.8992	-2.2888	-3.8147	-8.6975	-12.0544	-4.7302	-4.425	-11.2915	-1.6785	1593.3438	1
-1.3733	-6.1035	-0.6104	-3.9673	-10.9863	-5.9509	-3.9673	-3.6621	-2.1362	-3.8147	-0.6104	-5.4932	-0.4578	-13.2751	-4.8828	-5.9509	-12.97	-1.5259	1593.3594	1
-1.0681	-6.4087	-0.1526	-2.1362	-11.4441	-7.019	-1.6785	-3.5095	-1.8311	-4.425	1.2207	-4.7302	-2.2888	-11.9018	-4.5776	-4.8828	-12.3596	-0.7629	1593.375	1
-4.1199	-6.7139	0	0.6104	-14.1907	-6.8664	-1.6785	-4.1199	-3.8147	-3.5095	0	-2.8992	-5.7983	-11.9018	-4.425	-4.7302	-10.0708	-2.8992	1593.3906	1
-6.2561	-7.4768	0.9155	1.0681	-10.5286	-8.5449	-4.1199	-2.8992	-6.4087	-2.4414	-1.0681	-1.8311	-3.8147	-12.5122	-5.0354	-4.7302	-8.2397	-4.5776	1593.4062	1
-6.4087	-5.6457	-0.7629	-1.5259	-5.0354	-7.4768	-5.188	-4.7302	-8.2397	-1.5259	-1.3733	-3.2043	0.9155	-11.4441	-5.0354	-6.8664	-9.4604	-4.7302	1593.4219	1
0	-5.0354	-1.8311	-2.1362	-11.7493	-5.4932	-4.2725	-5.4932	-5.188	-0.9155	-0.9155	-1.9836	-2.7466	-11.9018	-5.6457	-6.7139	-12.6648	-1.3733	1593.4375	1
-1.0681	-5.6457	-3.5095	0.4578	-16.6321	-5.3406	-1.5259	-5.188	-6.4087	-1.3733	-2.1362	0.1526	-7.782	-10.9863	-3.9673	-5.9509	-12.5122	0	1593.4531	1
0	-5.7983	-3.9673	1.5259	-9.0027	-6.5613	-1.6785	-4.7302	-2.4414	-3.2043	-2.2888	-0.3052	-0.9155	-10.8337	-5.3406	-4.8828	-11.2915	-0.6104	1593.4688	1
-1.2207	-6.1035	-2.594	2.8992	-11.2915	-6.2561	-3.2043	-2.8992	-2.1362	-2.7466	-1.2207	-0.9155	-2.7466	-11.2915	-5.3406	-4.2725	-8.6975	-3.2043	1593.4844	1
-1.8311	-7.4768	-0.6104	0.1526	-7.1716	-5.3406	-3.3569	-2.7466	-3.0518	-3.6621	-0.1526	-2.8992	3.2043	-12.207	-5.7983	-3.8147	-10.2234	-2.594	1593.5	1
0.9155	-6.8664	-1.5259	-0.1526	-6.5613	-6.5613	-3.6621	-3.3569	-1.5259	-2.8992	-1.3733	-1.8311	1.5259	-10.6811	-5.7983	-5.188	-11.5967	-1.3733	1593.5156	1
-1.9836	-6.5613	-0.4578	1.9836	-14.9536	-6.4087	-1.8311	-1.9836	-4.7302	-1.3733	-2.4414	1.5259	-6.7139	-9.7656	-6.2561	-2.4414	-11.2915	-2.1362	1593.5312	1
-4.7302	-4.7302	-0.3052	0.3052	-16.4795	-3.5095	-1.9836	-1.6785	-7.1716	-0.6104	-0.6104	-1.0681	-5.188	-10.0708	-6.1035	-2.2888	-9.4604	-2.7466	1593.5469	1
-3.9673	-3.9673	-0.1526	-2.594	-11.4441	-6.8664	-4.5776	-1.9836	-6.1035	0.4578	0.3052	-5.3406	-4.7302	-10.9863	-6.1035	-3.0518	-10.376	-1.8311	1593.5625	1
0.9155	-4.5776	-1.8311	-2.1362	-13.2751	-5.188	-5.188	-3.0518	-3.3569	0.1526	0.3052	-4.7302	-6.4087	-9.613	-7.1716	-3.5095	-11.7493	-2.8992	1593.5781	1
1.2207	-7.3242	-0.7629	0.1526	-13.2751	-5.3406	-2.7466	-2.7466	-3.8147	0.7629	-2.1362	-1.5259	-5.6457	-8.2397	-7.4768	-2.7466	-13.7329	-0.7629	1593.5938	1
-2.7466	-8.5449	-0.3052	1.8311	-14.801	-2.594	-3.2043	-3.6621	-5.188	-0.9155	-4.1199	0.4578	-5.0354	-9.0027	-7.1716	-3.0518	-11.5967	-0.9155	1593.6094	1
-5.6457	-8.8501	-0.6104	2.594	-1.8311	-8.2397	-3.2043	-3.9673	-5.6457	-1.6785	-5.188	0	1.3733	-8.8501	-6.5613	-3.2043	-7.1716	-4.425	1593.625	1
-1.9836	-7.019	-1.0681	0.1526	-8.6975	-4.2725	-4.7302	-4.1199	-3.0518	-1.2207	-2.7466	-2.8992	-2.4414	-8.8501	-6.5613	-3.9673	-5.3406	-7.1716	1593.6406	1
1.2207	-6.2561	-1.0681	-0.9155	-12.97	-2.8992	-3.3569	-3.3569	-1.3733	-0.3052	-0.7629	-4.5776	-3.8147	-8.2397	-6.8664	-3.6621	-9.4604	-3.5095	1593.6562	1
0.6104	-7.4768	1.0681	1.9836	-11.1389	-1.3733	-1.8311	-3.2043	-2.594	0.7629	0.3052	-2.2888	-1.8311	-7.3242	-6.1035	-2.2888	-12.3596	0.7629	1593.6719	1
-4.7302	-6.4087	2.594	4.1199	-5.9509	-3.5095	-0.3052	0	-6.5613	3.0518	0.1526	-1.0681	-0.9155	-6.5613	-2.8992	0.6104	-11.4441	3.5095	1593.6875	1
-3.0518	-6.8664	0.6104	3.6621	-6.8664	-5.0354	-1.2207	-1.9836	-5.7983	1.6785	-1.0681	-0.4578	0.1526	-8.2397	-4.7302	-2.2888	-10.0708	-0.9155	1593.7031	1
-0.7629	-5.3406	-0.1526	-1.6785	-10.376	-3.2043	-2.4414	-4.2725	-3.5095	1.0681	-2.7466	-2.7466	-1.8311	-8.0872	-6.4087	-3.9673	-7.9346	-4.1199	1593.7188	1
2.8992	-6.7139	-0.9155	0.1526	-12.0544	-1.0681	-3.2043	-3.2043	-1.8311	-0.3052	-2.2888	-0.1526	-3.0518	-7.6294	-6.7139	-2.1362	-6.5613	-5.7983	1593.7344	1
0.1526	-7.782	-1.3733	3.2043	-5.0354	-2.7466	-3.0518	-4.425	-2.594	-2.8992	-1.3733	1.0681	0	-6.8664	-6.2561	-2.1362	-8.2397	-3.6621	1593.75	1
-2.8992	-8.3923	-1.3733	3.5095	-8.3923	-2.2888	-4.2725	-4.2725	-4.425	-3.3569	-1.2207	-0.1526	-3.3569	-7.019	-6.2561	-2.594	-11.4441	-0.6104	1593.7656	1
-0.6104	-8.0872	-1.8311	2.1362	-12.6648	-1.9836	-4.5776	-4.2725	-1.9836	-5.0354	0.9155	-2.2888	-5.7983	-6.5613	-7.1716	-3.9673	-11.5967	-0.7629	1593.7812	1
3.5095	-6.4087	-2.8992	0.1526	-14.1907	0.3052	-4.1199	-4.2725	1.6785	-3.6621	-1.2207	-2.4414	-3.9673	-7.782	-6.5613	-3.9673	-11.2915	-0.7629	1593.7969	1
0.9155	-7.6294	-3.0518	2.8992	-10.2234	-4.1199	-1.9836	-4.7302	-2.594	-1.3733	-3.6621	0.7629	-3.8147	-6.5613	-6.2561	-4.425	-10.5286	-2.1362	1593.8125	1
-3.3569	-8.5449	-2.1362	4.5776	-5.3406	-4.1199	-1.6785	-5.9509	-6.4087	-0.4578	-4.425	1.8311	2.1362	-9.1553	-5.0354	-5.0354	-8.3923	-3.5095	1593.8281	1
-3.5095	-9.3079	-2.2888	3.3569	-11.9018	-0.7629	-3.8147	-6.4087	-5.7983	-1.9836	-2.8992	-1.0681	-3.5095	-8.6975	-4.8828	-5.7983	-10.5286	-1.2207	1593.8438	1
0.7629	-9.1553	-2.2888	3.3569	-15.8691	-2.4414	-3.5095	-6.7139	-3.9673	-1.3733	-0.6104	-1.3733	-8.0872	-9.1553	-5.6457	-5.6457	-11.4441	-3.0518	1593.8594	1
4.2725	-8.0872	-2.1362	2.2888	-9.1553	-3.3569	-2.1362	-5.6457	-0.6104	-2.7466	-0.4578	0.1526	-3.2043	-6.1035	-6.4087	-4.5776	-10.8337	-1.6785	1593.875	1
4.1199	-7.782	-2.2888	2.7466	-5.4932	-1.6785	-1.0681	-4.425	0.3052	-3.5095	-2.1362	2.1362	3.5095	-8.0872	-5.3406	-2.7466	-8.5449	-1.3733	1593.8906	1
0.3052	-5.3406	-1.2207	1.8311	-7.4768	-1.0681	-0.6104	-5.188	-1.2207	-2.594	-3.0518	2.4414	1.8311	-7.4768	-5.6457	-3.0518	-7.1716	-2.4414	1593.9062	1
-2.2888	-4.7302	1.5259	-1.2207	-12.5122	-3.0518	-1.3733	-5.4932	-1.9836	-2.7466	-0.4578	-1.5259	-6.5613	-6.4087	-5.4932	-3.9673	-8.6975	-1.2207	1593.9219	1
1.8311	-5.7983	4.1199	-2.2888	-5.6457	-3.5095	-1.2207	-5.9509	0.1526	-0.7629	1.0681	-2.594	0.9155	-7.1716	-5.4932	-4.5776	-10.2234	0.3052	1593.9375	1
1.8311	-5.3406	2.2888	-1.5259	-4.425	-2.7466	-0.9155	-5.6457	-1.5259	0.9155	1.2207	-3.3569	4.1199	-7.019	-5.9509	-4.8828	-9.4604	-1.6785	1593.9531	1
-0.7629	-6.1035	1.0681	-1.0681	-10.8337	-1.9836	-1.9836	-4.2725	-4.5776	1.3733	0	-3.6621	-3.5095	-6.8664	-5.9509	-2.7466	-9.0027	-3.0518	1593.9688	1
1.2207	-6.2561	-0.6104	-1.2207	-11.4441	-3.0518	-3.3569	-4.8828	-1.6785	1.3733	-0.6104	-5.9509	-4.7302	-8.2397	-6.1035	-3.6621	-7.4768	-5.0354	1593.9844	1
5.7983	5.9509	-35.7055	42.8772	9.613	-0.4578	-5.3406	19.5312	-2.1362	5.6457	-13.2751	28.6865	11.7493	-0.1526	11.4441	0.3052	13.2751	-17.5476	1650	1
4.425	5.9509	-34.9426	41.0461	5.4932	-0.7629	-6.7139	18.4631	-2.1362	5.6457	-13.5803	26.5503	7.3242	-1.8311	11.2915	-0.3052	13.8855	-19.3786	1650.0156	1
3.0518	6.2561	-34.6374	39.2151	2.8992	-1.5259	-8.0872	20.5993	-2.594	5.0354	-12.5122	23.9563	5.0354	-3.2043	11.7493	0.3052	17.2424	-22.1252	1650.0312	1
3.5095	7.9346	-34.3322	37.2314	8.0872	-2.1362	-8.6975	19.2261	-2.1362	6.1035	-12.6648	23.0408	9.4604	-2.594	11.1389	-1.5259	17.5476	-23.3459	1650.0469	1
5.7983	7.9346	-34.0271	37.8418	6.5613	-1.2207	-6.5613	19.989	-1.5259	7.9346	-13.4277	24.5666	10.2234	-2.8992	10.6811	0.7629	16.4795	-22.4304	1650.0625	1
5.7983	8.0872	-32.8064	37.9944	4.5776	-0.1526	-7.3242	21.3623	-0.1526	7.9346	-13.7329	25.0244	10.5286	-3.9673	9.613	2.2888	14.801	-19.8364	1650.0781	1
3.2043	5.9509	-30.8227	36.6211	3.5095	-2.4414	-8.5449	22.2778	-1.3733	6.5613	-13.5803	23.3459	9.4604	-5.3406	7.9346	2.7466	12.97	-19.8364	1650.0938	1
1.6785	6.2561	-30.0598	34.0271	0.4578	-3.5095	-10.0708	22.7356	-2.4414	7.3242	-14.0381	21.0571	5.6457	-6.1035	7.019	3.0518	11.7493	-19.6838	1650.1094	1
3.2043	4.425	-30.365	33.1115	2.7466	-1.3733	-10.2234	23.0408	-2.7466	7.9346	-14.6484	19.8364	12.0544	-7.782	6.7139	3.2043	9.613	-19.6838	1650.125	1
4.425	3.5095	-29.9072	36.6211	4.2725	-3.3569	-8.8501	23.8037	-2.1362	6.8664	-14.1907	24.1089	10.2234	-5.0354	6.5613	4.1199	7.3242	-18.9209	1650.1406	1
2.1362	2.2888	-28.9917	36.7737	4.425	-5.188	-9.0027	23.1933	-2.8992	4.425	-12.0544	22.7356	9.3079	-5.188	6.5613	2.7466	6.1035	-17.0898	1650.1562	1
0.1526	1.3733	-27.4658	36.7737	-0.1526	-6.2561	-10.5286	23.1933	-5.188	5.9509	-10.8337	20.9045	2.594	-3.5095	5.0354	2.1362	5.3406	-15.564	1650.1719	1
-0.1526	3.3569	-27.4658	35.4004	1.0681	-5.4932	-8.6975	22.1252	-6.1035	7.3242	-10.376	20.2942	3.6621	-3.0518	7.4768	0.9155	6.1035	-15.4114	1650.1875	1
-0.4578	4.1199	-27.9236	35.4004	1.8311	-3.6621	-8.3923	21.9726	-6.4087	6.7139	-11.2915	22.1252	5.7983	-2.8992	7.4768	1.3733	6.7139	-16.6321	1650.2031	1
1.9836	5.6457	-27.6184	32.5012	-4.8828	-2.1362	-7.6294	22.7356	-3.9673	7.9346	-12.5122	21.0571	1.6785	-3.5095	7.4768	2.4414	10.9863	-18.6157	1650.2188	1
0.6104	5.6457	-25.9399	31.1279	-4.8828	-2.7466	-7.9346	23.1933	-4.425	7.6294	-12.0544	20.2942	0.4578	-4.1199	7.782	3.5095	14.801	-19.3786	1650.2344	1
0.3052	7.6294	-27.1606	30.9753	-2.4414	-1.9836	-8.0872	22.1252	-5.188	9.3079	-12.0544	19.6838	2.594	-2.2888	7.1716	2.1362	17.7002	-20.7519	1650.25	1
1.0681	7.019	-26.3977	28.8391	-2.7466	-1.3733	-6.2561	19.989	-5.7983	10.6811	-11.2915	16.9372	4.2725	-2.7466	7.1716	0.9155	16.7847	-21.3623	1650.2656	1
4.1199	6.5613	-27.3132	31.2805	1.2207	-1.6785	-4.8828	21.0571	-3.3569	10.0708	-11.7493	19.6838	8.3923	-2.1362	6.5613	2.8992	15.2588	-18.9209	1650.2812	1
1.0681	7.1716	-26.5503	32.5012	-0.6104	-0.3052	-5.6457	21.9726	-4.7302	10.8337	-11.2915	19.3786	6.1035	-4.425	8.8501	4.8828	15.2588	-16.9372	1650.2969	1
-0.6104	5.0354	-27.1606	33.1115	0.1526	-1.0681	-7.4768	22.1252	-6.7139	8.5449	-11.7493	20.2942	7.3242	-3.0518	6.8664	2.594	15.564	-17.395	1650.3125	1
-0.9155	4.425	-27.771	32.196	-0.3052	-3.6621	-7.6294	19.6838	-6.7139	7.9346	-12.97	19.6838	4.2725	-3.3569	4.5776	2.594	13.7329	-18.9209	1650.3281	1
-1.3733	3.6621	-26.5503	32.196	-2.4414	-1.5259	-7.6294	19.6838	-8.2397	7.782	-12.0544	20.4468	4.1199	-2.7466	5.4932	1.2207	11.9018	-18.6157	1650.3438	1
2.4414	3.6621	-26.2451	32.6538	-1.8311	-0.9155	-6.4087	19.5312	-4.8828	8.6975	-12.5122	21.2097	4.8828	-1.3733	3.8147	3.0518	11.2915	-16.7847	1650.3594	1
-1.8311	4.7302	-26.5503	31.7383	-4.2725	-1.5259	-7.6294	19.8364	-7.3242	8.0872	-9.9182	17.2424	0.6104	-2.2888	4.7302	3.3569	13.8855	-18.7683	1650.375	1
-2.2888	4.425	-27.1606	32.5012	-3.0518	-1.3733	-8.2397	20.1416	-6.5613	7.6294	-8.8501	15.2588	1.6785	-2.4414	4.425	3.8147	13.4277	-19.5312	1650.3906	1
-0.9155	3.9673	-27.008	31.8908	-4.1199	-1.2207	-7.1716	21.0571	-5.6457	5.9509	-7.9346	15.564	1.5259	-2.4414	5.4932	3.9673	13.1225	-20.4468	1650.4062	1
3.8147	3.2043	-27.9236	31.7383	-6.5613	-0.7629	-3.8147	21.5149	-4.2725	6.2561	-7.6294	16.4795	1.2207	-1.9836	5.9509	5.188	11.1389	-18.9209	1650.4219	1
1.0681	3.9673	-28.3813	34.1797	-6.1035	0.1526	-0.9155	18.3105	-6.4087	5.4932	-8.8501	20.5993	1.6785	-1.5259	8.6975	2.594	13.7329	-20.2942	1650.4375	1
-0.6104	5.6457	-29.7546	35.0952	-5.6457	-1.6785	-2.1362	17.8528	-9.1553	6.1035	-8.2397	21.6675	-1.9836	-1.9836	9.9182	2.4414	15.7165	-20.1416	1650.4531	1
-1.5259	6.5613	-29.1443	35.4004	-2.8992	-1.0681	-2.7466	19.2261	-10.376	7.019	-9.0027	23.6511	1.0681	-1.0681	9.7656	2.7466	13.7329	-17.2424	1650.4688	1
0.9155	5.9509	-28.8391	35.2478	-0.6104	-1.2207	-3.2043	16.6321	-10.2234	7.4768	-9.4604	25.4822	3.6621	-1.5259	8.6975	0.7629	10.9863	-15.7165	1650.4844	1
2.2888	6.1035	-27.771	34.9426	2.594	-2.594	-3.3569	18.1579	-8.8501	9.3079	-10.9863	26.0925	4.425	1.0681	7.4768	1.8311	8.8501	-13.5803	1650.5	1
-2.4414	6.1035	-26.0925	36.0107	-2.7466	-3.0518	-2.4414	15.4114	-10.8337	9.9182	-10.5286	25.0244	0.3052	-0.6104	7.1716	0.3052	6.2561	-9.0027	1650.5156	1
-2.4414	7.1716	-26.0925	34.1797	-3.6621	-1.9836	-3.5095	16.7847	-9.1553	9.1553	-8.6975	21.5149	1.0681	-0.9155	6.1035	1.3733	7.3242	-9.4604	1650.5312	1
-1.6785	6.5613	-25.9399	33.5693	-1.8311	-2.8992	-4.5776	16.1743	-7.019	8.5449	-7.3242	18.3105	2.2888	-1.2207	5.188	0.6104	5.4932	-8.8501	1650.5469	1
0.6104	5.188	-27.6184	34.79	-3.6621	-1.0681	-3.6621	15.4114	-6.1035	8.5449	-9.7656	20.2942	2.2888	-0.7629	5.7983	-0.3052	6.1035	-10.8337	1650.5625	1
0	2.7466	-27.4658	37.2314	0.1526	-2.2888	-3.8147	16.4795	-4.8828	7.019	-12.3596	22.7356	4.8828	-0.3052	4.5776	1.3733	6.2561	-11.1389	1650.5781	1
-1.8311	-0.3052	-27.3132	38.2995	-2.4414	-2.594	-6.1035	17.5476	-5.188	5.9509	-15.2588	23.3459	3.6621	-3.5095	4.425	1.8311	6.5613	-14.1907	1650.5938	1
-3.0518	-1.2207	-27.1606	35.8581	-9.7656	1.6785	-6.8664	15.8691	-8.2397	6.4087	-16.0217	22.2778	0	-4.8828	5.4932	0.3052	6.8664	-17.395	1650.6094	1
-0.6104	0	-26.8554	33.2641	-7.782	-0.7629	-7.4768	17.0898	-7.4768	6.5613	-14.4958	21.2097	-4.425	-2.2888	5.4932	2.2888	8.3923	-19.989	1650.625	1
1.0681	2.2888	-28.2287	35.4004	-1.3733	1.6785	-8.2397	17.0898	-6.5613	8.3923	-13.7329	22.4304	1.5259	-0.3052	5.4932	2.4414	8.2397	-19.989	1650.6406	1
-1.2207	4.425	-27.1606	34.0271	-4.7302	3.5095	-10.0708	17.8528	-8.2397	8.3923	-10.6811	20.5993	-1.2207	-0.6104	5.0354	3.3569	12.0544	-23.3459	1650.6562	1
-2.8992	5.0354	-27.4658	31.8908	-6.1035	3.6621	-12.5122	16.0217	-9.1553	8.6975	-10.8337	17.8528	-3.6621	-1.8311	5.0354	1.5259	13.1225	-24.7192	1650.6719	1
-1.9836	3.6621	-28.0761	33.4167	-5.4932	5.0354	-13.5803	17.0898	-9.9182	8.0872	-10.5286	19.3786	-2.594	-1.5259	4.8828	2.2888	12.6648	-26.2451	1650.6875	1
1.0681	1.5259	-28.2287	34.79	-3.9673	1.9836	-11.2915	16.1743	-9.4604	9.0027	-11.7493	21.3623	-2.8992	-1.8311	4.425	3.2043	10.8337	-26.3977	1650.7031	1
-0.7629	0.7629	-29.2969	36.3159	-1.6785	0.1526	-8.0872	14.801	-10.8337	6.2561	-10.8337	22.4304	-1.3733	0	4.8828	1.6785	9.3079	-22.8882	1650.7188	1
-2.2888	1.8311	-28.9917	38.1469	-6.7139	1.3733	-7.9346	15.2588	-10.9863	5.4932	-6.7139	20.9045	-3.2043	-1.6785	6.7139	0.1526	9.4604	-22.2778	1650.7344	1
-0.1526	2.2888	-28.2287	40.7409	-6.4087	0.4578	-7.6294	16.6321	-7.4768	5.9509	4.7302	11.4441	-4.7302	-1.6785	5.4932	3.9673	8.8501	-23.6511	1650.75	1
0	3.6621	-26.8554	40.7409	-9.4604	4.8828	-6.7139	18.1579	-8.8501	4.8828	-1.9836	23.4985	-2.4414	0.6104	5.7983	2.8992	9.4604	-23.1933	1650.7656	1
2.2888	-0.4578	-24.8718	35.553	-10.5286	1.6785	-5.3406	13.4277	-6.8664	7.1716	-11.1389	23.3459	-2.2888	-0.6104	1.6785	0.4578	8.2397	-24.2615	1650.7812	1
-1.0681	-0.1526	-23.6511	34.9426	-14.1907	4.1199	-5.0354	13.4277	-5.7983	7.4768	-16.6321	25.0244	-2.4414	-1.5259	1.2207	1.0681	10.2234	-24.5666	1650.7969	1
-4.1199	0.1526	-21.9726	34.3322	-12.97	7.3242	-6.2561	11.2915	-6.4087	9.7656	-18.9209	23.9563	0.6104	-0.4578	0	-0.7629	12.6648	-24.7192	1650.8125	1
-4.7302	1.9836	-20.7519	33.2641	-15.7165	9.4604	-7.1716	11.5967	-6.2561	11.1389	-17.7002	22.583	-2.4414	-0.1526	1.2207	-0.4578	12.5122	-23.8037	1650.8281	1
-3.0518	3.6621	-19.6838	30.365	-13.4277	9.7656	-7.1716	12.207	-7.782	9.613	-10.2234	19.6838	-0.7629	-0.1526	1.8311	0.4578	12.3596	-22.1252	1650.8438	1
-1.3733	2.7466	-20.1416	32.5012	-12.5122	7.6294	-6.1035	12.5122	-9.7656	9.4604	-3.8147	17.8528	-2.594	0.4578	1.8311	1.8311	12.8174	-24.8718	1650.8594	1
-2.1362	1.8311	-19.6838	32.196	-10.8337	4.8828	-5.9509	12.0544	-10.0708	7.1716	-0.7629	15.8691	-3.3569	-0.3052	2.4414	1.3733	12.5122	-24.5666	1650.875	1
-4.5776	0.1526	-18.4631	31.2805	-10.9863	4.1199	-5.7983	14.3433	-13.7329	4.7302	-0.4578	17.8528	-5.4932	-1.5259	7.019	1.6785	10.6811	-24.2615	1650.8906	1
-2.7466	-0.6104	-19.8364	30.0598	-11.7493	4.1199	-5.0354	12.8174	-14.4958	1.9836	-3.5095	22.8882	-6.7139	-3.6621	9.1553	1.3733	9.0027	-25.4822	1650.9062	1
1.5259	-1.3733	-20.5993	30.8227	-8.8501	2.7466	-3.0518	11.9018	-11.2915	1.3733	-6.8664	27.1606	-5.3406	-2.1362	9.1553	1.0681	8.0872	-25.3296	1650.9219	1
1.0681	-1.8311	-18.7683	29.602	-11.4441	2.594	-2.7466	12.3596	-11.1389	2.8992	-9.613	27.9236	-7.4768	-1.6785	8.5449	1.3733	8.8501	-25.4822	1650.9375	1
-0.1526	-0.6104	-17.7002	29.1443	-10.6811	3.6621	-1.8311	14.1907	-10.5286	2.8992	-6.7139	25.0244	-6.1035	-0.6104	7.782	4.2725	9.9182	-24.7192	1650.9531	1
-0.6104	-0.3052	-17.0898	24.2615	-11.4441	1.2207	-1.9836	14.0381	-9.613	2.4414	-4.7302	18.1579	-9.1553	0.7629	7.6294	2.594	10.2234	-25.9399	1650.9688	1
1.6785	-0.4578	-18.1579	21.9726	-14.6484	2.8992	-1.6785	12.6648	-7.782	3.8147	-5.3406	14.3433	-9.1553	-0.1526	6.8664	1.6785	10.2234	-27.008	1650.9844	1
-0.9155	9.1553	3.5095	-0.1526	-5.9509	-4.5776	-8.8501	15.7165	2.7466	6.1035	-2.8992	5.6457	3.6621	29.4494	-42.1142	5.3406	5.0354	-22.2778	2848	1
0.7629	8.8501	4.1199	-0.3052	-7.1716	-5.7983	-9.1553	18.3105	2.2888	6.8664	-1.2207	5.4932	4.1199	33.4167	-50.5066	9.1553	5.0354	-22.4304	2848.0156	1
-0.9155	9.613	5.188	-0.6104	-8.6975	-9.3079	-7.3242	22.583	1.0681	6.8664	-0.1526	5.4932	3.8147	36.7737	-55.6945	12.3596	5.188	-23.4985	2848.0312	1
-0.7629	10.9863	5.6457	-0.4578	-10.376	-11.2915	-5.6457	26.0925	2.8992	6.7139	0.9155	4.8828	4.7302	40.5883	-61.0351	14.4958	4.5776	-25.9399	2848.0469	1
-0.4578	10.0708	7.6294	0	-11.7493	-13.5803	-2.1362	30.0598	3.9673	7.3242	1.0681	4.8828	5.0354	46.0815	-63.0187	14.4958	3.6621	-26.2451	2848.0625	1
2.1362	9.7656	6.1035	2.4414	-12.8174	-15.1062	4.5776	32.6538	4.5776	7.4768	1.0681	7.3242	6.4087	53.7109	-64.2395	13.4277	2.4414	-22.4304	2848.0781	1
1.0681	9.3079	5.3406	2.594	-13.7329	-11.9018	9.1553	28.6865	4.2725	6.1035	0.6104	7.3242	6.5613	63.4765	-66.3757	8.5449	2.7466	-20.2942	2848.0938	1
-2.1362	6.7139	5.4932	3.5095	-13.2751	-10.8337	11.1389	22.1252	1.2207	3.3569	2.4414	6.5613	5.7983	75.3784	-71.2585	-0.7629	2.4414	-16.4795	2848.1094	1
-5.0354	7.4768	5.188	1.8311	-12.3596	-10.2234	12.3596	16.9372	-0.6104	5.188	-0.1526	5.0354	5.9509	89.569	-80.8715	-7.9346	1.3733	-13.7329	2848.125	1
-5.188	7.4768	4.2725	3.8147	-11.5967	-10.376	16.6321	12.5122	-0.7629	5.4932	-1.2207	6.8664	7.6294	102.539	-89.8742	-13.1225	-3.3569	-7.9346	2848.1406	1
-6.5613	7.782	5.0354	4.1199	-13.8855	-10.376	22.583	6.4087	-1.6785	6.4087	-1.2207	6.8664	8.0872	118.8659	-104.8278	-17.395	-7.1716	-2.2888	2848.1562	1
-8.0872	6.2561	6.7139	6.2561	-12.5122	-11.4441	26.3977	2.594	-3.9673	5.9509	1.2207	7.9346	9.0027	139.0075	-121.1547	-21.8201	-12.6648	4.425	2848.1719	1
-11.1389	9.0027	7.6294	5.4932	-12.207	-9.0027	34.79	-9.4604	-4.2725	6.7139	1.6785	6.8664	4.8828	143.8903	-117.34	-27.3132	-16.1743	12.0544	2848.1875	1
-10.6811	9.613	9.613	5.188	-10.5286	-5.9509	49.7436	-24.414	-4.1199	7.782	3.3569	6.7139	-0.7629	115.0512	-74.1577	-31.2805	-18.3105	19.6838	2848.2031	1
-5.7983	8.3923	9.7656	9.613	-10.5286	-0.6104	66.3757	-39.8254	-0.9155	8.6975	3.3569	10.8337	-1.6785	77.5146	-24.5666	-35.8581	-20.4468	25.6347	2848.2188	1
-5.9509	8.3923	9.7656	9.1553	-4.7302	-1.0681	80.4138	-55.3894	-1.6785	7.782	4.7302	10.5286	8.0872	39.5202	18.0054	-46.3867	-25.0244	32.3486	2848.2344	1
-5.9509	7.782	9.9182	7.1716	3.3569	-3.2043	96.2829	-75.5309	-3.6621	6.5613	5.3406	10.6811	21.5149	5.6457	46.0815	-52.3376	-29.1443	40.4358	2848.25	1
-5.9509	9.613	9.4604	6.1035	24.5666	-12.97	112.915	-96.2829	-5.6457	7.019	7.019	10.8337	30.5176	-9.1553	62.561	-55.6945	-34.9426	48.3703	2848.2656	1
-1.9836	12.6648	9.4604	8.0872	68.6645	-36.6211	135.0402	-118.8659	-3.2043	8.6975	8.5449	14.1907	40.5883	-3.8147	69.58	-58.1359	-37.384	59.0515	2848.2812	1
3.3569	12.8174	10.5286	13.1225	97.1984	-50.0488	165.2526	-137.9393	0.6104	8.2397	11.7493	19.2261	41.1987	10.376	81.0241	-58.1359	-44.403	79.3456	2848.2969	1
3.6621	11.5967	14.1907	17.8528	89.4164	-52.185	207.9771	-150.9093	0.7629	8.6975	14.9536	22.8882	22.583	22.2778	101.3183	-51.8798	-48.3703	100.0976	2848.3125	1
0.6104	11.5967	15.564	23.8037	74.4628	-53.1005	234.2222	-146.6368	0	8.2397	16.3269	27.008	-0.3052	31.7383	120.8495	-43.3349	-48.5229	115.3564	2848.3281	1
-0.3052	10.5286	17.0898	30.2124	62.8662	-46.3867	225.067	-126.0375	0.4578	7.782	19.2261	30.0598	-7.3242	35.553	129.2418	-41.9616	-41.5039	117.9503	2848.3438	1
-1.5259	10.376	18.0054	36.0107	59.6618	-40.7409	199.5848	-100.4028	0.4578	9.613	19.0735	33.7219	-7.1716	43.3349	128.3263	-46.3867	-36.3159	114.746	2848.3594	1
-3.0518	11.4441	19.0735	39.0625	54.6264	-33.2641	180.3587	-83.3129	1.0681	11.5967	19.989	33.8745	-5.6457	51.2695	123.1383	-50.354	-29.1443	111.3891	2848.375	1
-2.1362	13.1225	20.1416	41.0461	45.9289	-26.0925	173.3397	-73.6999	1.6785	10.2234	24.1089	36.1633	-2.8992	58.8989	114.4408	-50.9643	-22.1252	109.1003	2848.3906	1
-3.2043	14.4958	19.989	37.2314	36.4685	-19.0735	175.1708	-74.768	4.1199	10.6811	21.9726	31.7383	-0.6104	56.1523	105.8959	-43.6401	-13.5803	108.0321	2848.4062	1
1.0681	14.1907	19.5312	34.4848	32.0434	-15.8691	189.3614	-87.1276	8.2397	10.0708	19.3786	31.5857	3.6621	46.6919	107.727	-39.6728	-12.5122	109.558	2848.4219	1
3.6621	13.2751	21.2097	32.959	28.6865	-12.3596	207.672	-98.1139	9.613	11.2915	17.2424	32.959	5.3406	36.1633	119.6288	-35.2478	-15.1062	119.6288	2848.4375	1
5.7983	10.8337	19.8364	31.2805	26.8554	-7.782	212.7074	-101.4709	8.3923	8.5449	18.3105	32.5012	8.0872	29.7546	125.122	-32.6538	-22.2778	123.9013	2848.4531	1
3.2043	10.5286	17.7002	28.5339	24.414	-5.7983	209.1978	-102.2338	6.4087	6.7139	15.2588	31.5857	9.0027	25.7873	127.716	-36.9262	-24.8718	120.0866	2848.4688	1
2.594	8.6975	15.7165	27.008	25.4822	-6.5613	204.315	-99.7924	4.7302	4.5776	13.7329	30.9753	10.6811	21.8201	130.4625	-39.5202	-25.6347	115.8141	2848.4844	1
3.9673	7.6294	14.0381	26.5503	22.8882	-9.7656	206.1461	-98.4191	4.2725	5.9509	9.613	32.3486	11.1389	16.7847	133.9721	-41.0461	-24.5666	114.2882	2848.5	1
2.594	6.2561	14.3433	27.4658	19.3786	-14.3433	212.7074	-95.9777	3.8147	3.9673	10.0708	32.8064	9.9182	13.8855	136.7186	-38.7573	-21.8201	115.8141	2848.5156	1
-0.1526	5.0354	15.564	28.5339	19.6838	-20.4468	219.2686	-95.0622	2.7466	2.2888	11.9018	32.0434	9.1553	13.7329	138.2445	-37.6892	-21.8201	120.8495	2848.5312	1
-1.3733	5.3406	15.564	30.6701	22.8882	-24.1089	219.5738	-96.5881	4.5776	1.2207	12.0544	32.3486	11.7493	12.207	136.8712	-39.0625	-23.0408	124.5116	2848.5469	1
-2.7466	4.7302	16.7847	33.2641	19.0735	-24.2615	219.5738	-97.0458	6.1035	2.2888	10.8337	32.8064	12.8174	13.1225	133.6669	-42.2668	-25.3296	128.9367	2848.5625	1
-3.9673	1.9836	18.3105	36.7737	9.4604	-22.4304	221.0997	-95.3674	5.7983	3.0518	10.9863	33.2641	12.97	14.3433	131.0729	-45.6237	-30.0598	134.2772	2848.5781	1
-7.1716	1.5259	19.0735	38.2995	2.2888	-20.7519	219.7264	-93.0785	4.2725	2.1362	12.6648	32.6538	10.6811	17.5476	130.6151	-50.6591	-32.6538	140.3807	2848.5938	1
-10.376	3.5095	20.4468	39.5202	-2.4414	-19.2261	221.2523	-92.6208	4.1199	1.9836	13.8855	33.1115	8.0872	20.4468	132.7514	-54.3212	-33.7219	148.6205	2848.6094	1
-10.0708	4.8828	22.2778	39.6728	-4.2725	-17.0898	224.6092	-91.8578	4.8828	3.2043	14.3433	34.3322	7.782	20.7519	134.2772	-51.4221	-31.5857	159.3016	2848.625	1
-8.3923	5.0354	23.0408	40.4358	-4.1199	-17.2424	230.4075	-89.7216	5.4932	3.8147	13.8855	36.9262	7.9346	18.6157	135.0402	-42.2668	-32.5012	166.4733	2848.6406	1
-7.3242	3.0518	22.4304	42.572	-1.2207	-17.8528	222.9307	-85.7543	4.8828	1.6785	15.7165	38.4521	8.5449	19.0735	132.9039	-42.4194	-33.5693	160.3697	2848.6562	1
-8.0872	1.8311	21.8201	40.5883	-1.3733	-15.2588	212.4022	-80.2612	3.0518	0	16.9372	36.1633	9.3079	18.3105	131.9884	-44.0979	-35.7055	153.3507	2848.6719	1
-10.376	0.4578	24.5666	38.6047	-5.188	-14.6484	206.909	-72.4792	0.4578	0.1526	17.5476	35.0952	5.9509	19.8364	135.8031	-46.997	-37.5366	151.9774	2848.6875	1
-8.5449	-0.1526	26.3977	37.8418	-6.1035	-15.564	205.8409	-64.6972	1.6785	0.3052	18.6157	34.9426	3.6621	17.8528	144.8058	-46.8444	-36.9262	153.0455	2848.7031	1
-5.7983	-1.2207	29.2969	40.1306	-9.9182	-13.7329	205.6883	-56.6101	3.9673	0.1526	20.2942	37.9944	1.5259	16.0217	150.9093	-43.0298	-39.2151	155.0292	2848.7188	1
-7.1716	-0.3052	32.0434	38.9099	-15.4114	-14.4958	207.672	-54.0161	3.3569	1.0681	22.7356	36.3159	-1.3733	15.4114	150.299	-40.5883	-38.6047	154.4188	2848.7344	1
-9.7656	-0.6104	34.4848	35.553	-16.0217	-16.7847	198.5167	-50.9643	1.0681	0.9155	24.414	33.2641	-1.0681	11.1389	138.7023	-34.0271	-36.4685	150.1464	2848.75	1
-9.3079	0.7629	37.0788	28.9917	-16.1743	-16.9372	184.326	-45.6237	2.594	2.7466	23.8037	28.3813	-2.2888	10.5286	121.765	-24.414	-37.8418	148.3153	2848.7656	1
-5.9509	1.2207	39.3676	26.0925	-16.4795	-15.2588	174.713	-43.1823	5.188	3.0518	24.5666	27.9236	-2.4414	10.376	104.2174	-12.3596	-37.6892	146.0265	2848.7812	1
-6.7139	1.9836	43.0298	24.7192	-13.7329	-15.8691	166.6258	-37.2314	3.0518	5.9509	25.9399	28.0761	-0.4578	9.4604	93.5363	-2.7466	-37.0788	149.0783	2848.7969	1
-6.1035	2.8992	46.8444	21.5149	-12.207	-15.4114	156.7076	-33.4167	4.1199	5.3406	30.8227	24.8718	-0.7629	7.1716	87.5854	1.6785	-36.6211	150.299	2848.8125	1
-8.0872	4.8828	49.1333	19.3786	-12.3596	-12.5122	140.6859	-29.1443	3.8147	5.9509	33.8745	21.6675	-1.5259	6.1035	82.2448	-0.1526	-36.1633	141.6015	2848.8281	1
-7.3242	4.7302	50.2014	17.8528	-11.4441	-10.5286	122.8332	-25.6347	4.5776	7.4768	34.79	18.6157	-2.2888	5.6457	75.6835	-3.8147	-36.1633	127.4108	2848.8438	1
-3.3569	5.0354	51.8798	20.9045	-8.2397	-9.4604	113.9831	-18.9209	6.1035	9.1553	37.384	21.8201	0.7629	8.8501	72.4792	-4.7302	-36.6211	121.9176	2848.8594	1
-5.7983	2.8992	51.7273	20.7519	-10.2234	-10.0708	108.7951	-16.9372	3.8147	8.0872	37.8418	19.8364	0	5.4932	69.8852	-3.8147	-35.8581	114.746	2848.875	1
-6.2561	2.8992	51.7273	22.583	-11.2915	-10.0708	103.3019	-12.5122	4.2725	5.6457	40.2832	20.7519	-2.1362	4.7302	68.0541	-1.2207	-36.3159	110.0158	2848.8906	1
-8.2397	1.5259	53.1005	22.1252	-12.97	-9.3079	97.5036	-8.8501	3.3569	5.9509	38.6047	20.5993	-3.0518	3.6621	64.8498	0.9155	-34.3322	104.6752	2848.9062	1
-5.6457	0.3052	51.2695	24.1089	-13.4277	-8.8501	91.0949	-5.4932	5.0354	5.4932	36.6211	22.8882	-2.8992	1.8311	60.5773	3.8147	-36.1633	100.8605	2848.9219	1
-5.188	-1.8311	50.9643	23.9563	-12.6648	-9.613	87.2802	-4.8828	3.9673	5.3406	33.8745	24.7192	-3.0518	1.3733	56.1523	5.6457	-34.9426	97.0458	2848.9375	1
-5.6457	-3.0518	49.8962	23.8037	-11.2915	-9.7656	80.1086	-3.8147	1.9836	3.6621	36.3159	23.0408	-1.9836	-1.2207	52.0324	6.4087	-34.79	93.9941	2848.9531	1
-6.7139	-1.8311	47.6074	22.8882	-10.8337	-9.7656	74.1577	-3.3569	1.2207	2.7466	36.6211	21.3623	-2.4414	-0.9155	46.5393	7.019	-32.3486	86.8224	2848.9688	1
-8.2397	-0.7629	46.8444	21.9726	-9.7656	-9.7656	67.1386	-1.0681	-0.6104	4.8828	36.4685	19.0735	-2.4414	-1.0681	42.2668	7.782	-29.602	80.5663	2848.9844	1
6.2561	1.9836	-35.7055	6.4087	-17.0898	-3.5095	3.2043	1.6785	-1.9836	4.8828	-26.7029	2.7466	-8.2397	-0.6104	-10.2234	3.3569	-29.4494	7.019	3007	1
4.5776	-0.1526	-34.3322	7.3242	-18.3105	-3.6621	3.6621	1.0681	-3.2043	2.8992	-24.8718	2.594	-8.8501	-1.3733	-10.376	3.3569	-29.4494	7.3242	3007.0156	1
1.8311	-0.1526	-32.8064	8.3923	-18.6157	-2.8992	2.4414	0.4578	-4.8828	1.3733	-23.9563	4.7302	-9.1553	-1.6785	-10.5286	2.7466	-28.6865	5.0354	3007.0312	1
0.3052	0	-31.8908	7.9346	-18.3105	-4.2725	2.2888	0.1526	-4.7302	0.1526	-25.0244	5.9509	-10.376	-1.5259	-10.376	2.1362	-28.5339	4.7302	3007.0469	1
2.1362	-0.9155	-32.5012	9.4604	-18.1579	-3.8147	2.7466	1.6785	-5.0354	-0.4578	-24.1089	7.782	-10.376	-1.8311	-8.5449	3.2043	-29.9072	3.9673	3007.0625	1
2.4414	-1.0681	-34.0271	10.6811	-18.0054	-3.8147	4.425	1.0681	-3.9673	-3.6621	-23.4985	9.1553	-8.5449	-1.3733	-10.0708	3.6621	-29.7546	3.2043	3007.0781	1
1.0681	-1.9836	-32.959	10.5286	-16.7847	-5.3406	2.8992	1.9836	-5.3406	-3.9673	-23.0408	9.0027	-9.3079	-1.9836	-8.8501	2.8992	-29.2969	3.3569	3007.0938	1
-0.4578	0.1526	-33.7219	11.1389	-17.5476	-4.5776	2.8992	1.3733	-4.2725	-4.7302	-22.7356	8.8501	-9.7656	0	-10.376	2.2888	-30.9753	5.6457	3007.1094	1
-0.6104	-0.7629	-33.8745	11.7493	-16.7847	-5.0354	3.3569	1.0681	-5.6457	-3.3569	-24.8718	10.376	-9.613	-0.1526	-10.2234	2.594	-32.0434	6.8664	3007.125	1
1.3733	0.7629	-36.4685	13.8855	-17.0898	-5.188	5.3406	1.3733	-3.8147	-3.2043	-26.3977	12.97	-9.3079	1.0681	-10.0708	2.7466	-32.196	7.4768	3007.1406	1
-0.1526	0.4578	-34.79	13.7329	-17.0898	-6.2561	6.4087	0.4578	-5.188	-4.7302	-24.2615	13.4277	-9.1553	0.4578	-9.9182	2.1362	-32.3486	7.9346	3007.1562	1
-1.8311	1.3733	-34.4848	12.207	-16.6321	-5.9509	3.2043	2.2888	-6.8664	-5.7983	-21.0571	10.9863	-9.7656	0	-9.0027	1.6785	-29.7546	4.5776	3007.1719	1
-0.6104	1.9836	-35.2478	12.0544	-18.7683	-4.425	2.594	1.9836	-5.0354	-7.3242	-21.2097	11.7493	-10.376	-0.7629	-9.0027	1.5259	-29.2969	3.3569	3007.1875	1
0.9155	0.7629	-35.0952	14.9536	-16.6321	-5.9509	3.8147	2.7466	-5.0354	-7.6294	-20.4468	14.6484	-8.8501	-0.9155	-8.0872	1.8311	-28.0761	2.594	3007.2031	1
1.3733	0.7629	-34.9426	14.9536	-18.4631	-5.9509	6.8664	2.7466	-5.0354	-7.9346	-20.7519	15.8691	-9.1553	0	-8.2397	2.594	-30.5176	5.6457	3007.2188	1
-0.4578	-0.3052	-34.1797	17.0898	-17.5476	-6.5613	5.0354	3.6621	-6.1035	-9.9182	-17.7002	15.8691	-8.5449	-1.2207	-7.1716	1.5259	-31.8908	6.7139	3007.2344	1
-3.8147	-1.0681	-33.2641	17.7002	-18.4631	-6.4087	3.6621	3.6621	-8.6975	-9.0027	-18.0054	15.2588	-9.7656	-0.6104	-8.3923	1.2207	-30.365	6.4087	3007.25	1
-6.1035	-0.4578	-32.959	19.5312	-18.1579	-5.7983	2.1362	3.6621	-9.3079	-7.4768	-18.7683	15.564	-9.4604	-0.4578	-9.0027	0.7629	-30.8227	4.7302	3007.2656	1
-5.188	-1.0681	-34.3322	22.2778	-19.5312	-5.7983	4.5776	2.2888	-9.613	-6.5613	-20.5993	18.4631	-9.3079	0	-8.8501	-0.3052	-30.365	2.4414	3007.2812	1
-4.8828	-2.1362	-34.0271	22.583	-19.0735	-5.6457	5.0354	2.7466	-9.7656	-7.9346	-18.9209	18.1579	-8.6975	0.1526	-8.3923	0	-30.8227	2.8992	3007.2969	1
-4.7302	-3.2043	-35.0952	22.8882	-19.8364	-6.7139	3.3569	3.9673	-10.376	-9.9182	-17.0898	17.2424	-10.6811	-0.4578	-7.019	-1.0681	-30.2124	1.6785	3007.3125	1
-4.5776	-3.0518	-35.8581	23.8037	-18.3105	-7.1716	1.5259	4.5776	-9.613	-8.6975	-19.0735	17.7002	-9.9182	0	-7.3242	-2.1362	-29.4494	1.2207	3007.3281	1
-2.4414	-2.2888	-36.9262	23.1933	-18.9209	-6.8664	4.425	3.6621	-7.3242	-9.1553	-20.9045	18.9209	-9.3079	0.4578	-7.9346	-0.9155	-30.2124	1.9836	3007.3438	1
-2.1362	-3.9673	-36.0107	24.1089	-18.1579	-7.6294	5.4932	4.425	-7.9346	-9.0027	-21.0571	19.989	-8.3923	0.3052	-7.1716	-0.6104	-30.9753	3.2043	3007.3594	1
-3.3569	-1.5259	-35.4004	24.414	-19.3786	-6.2561	5.6457	5.0354	-6.7139	-10.0708	-18.3105	19.2261	-10.2234	-0.7629	-4.5776	0.6104	-29.2969	3.0518	3007.375	1
-5.6457	1.0681	-35.553	23.9563	-17.2424	-7.1716	4.2725	5.188	-9.0027	-10.376	-18.6157	21.8201	-7.6294	2.8992	-7.3242	-2.8992	-28.9917	3.5095	3007.3906	1
-9.1553	0.6104	-33.5693	20.4468	-20.2942	-7.3242	2.8992	3.9673	-9.4604	-9.9182	-20.5993	18.3105	-10.8337	0.1526	-7.3242	-2.7466	-28.9917	0.1526	3007.4062	1
-7.3242	-2.2888	-33.1115	24.5666	-17.8528	-7.3242	3.6621	4.5776	-11.1389	-9.4604	-18.9209	21.3623	-9.1553	0.4578	-6.4087	-1.8311	-30.365	0.6104	3007.4219	1
-7.019	-2.7466	-32.8064	26.0925	-17.8528	-7.1716	3.5095	5.188	-11.4441	-10.6811	-16.6321	22.2778	-8.8501	0.7629	-5.4932	-2.7466	-30.2124	3.2043	3007.4375	1
-7.3242	-3.6621	-31.7383	26.5503	-17.7002	-6.5613	1.6785	5.188	-11.4441	-9.9182	-15.7165	20.9045	-8.8501	0.3052	-6.1035	-2.7466	-29.9072	3.2043	3007.4531	1
-9.3079	-1.8311	-32.196	26.2451	-19.8364	-5.188	1.0681	4.7302	-11.9018	-9.613	-15.4114	19.8364	-10.0708	0.3052	-6.4087	-3.0518	-29.2969	3.6621	3007.4688	1
-7.3242	-3.9673	-30.6701	26.5503	-19.0735	-5.0354	1.2207	5.0354	-10.2234	-9.3079	-16.3269	20.4468	-8.6975	-0.9155	-6.2561	-1.9836	-30.9753	4.8828	3007.4844	1
-8.0872	-4.425	-30.8227	28.9917	-18.7683	-5.3406	4.425	5.0354	-10.9863	-9.1553	-16.4795	22.2778	-7.782	-0.9155	-4.7302	-1.2207	-30.8227	6.2561	3007.5	1
-10.5286	-3.6621	-29.1443	27.6184	-19.0735	-6.2561	5.188	4.5776	-12.0544	-8.3923	-16.3269	21.0571	-9.1553	-0.6104	-4.425	-1.3733	-30.0598	5.9509	3007.5156	1
-12.0544	-4.425	-28.6865	28.2287	-19.5312	-5.7983	4.7302	5.6457	-13.2751	-7.6294	-16.0217	19.989	-9.7656	-1.5259	-2.7466	-0.9155	-28.3813	3.8147	3007.5312	1
-11.7493	-3.0518	-29.1443	27.9236	-18.7683	-6.2561	3.2043	6.5613	-12.5122	-7.6294	-16.1743	20.2942	-9.4604	-1.3733	-3.0518	-1.3733	-28.5339	5.0354	3007.5469	1
-9.4604	-1.8311	-30.365	27.3132	-18.0054	-7.019	5.188	7.019	-11.2915	-5.7983	-18.0054	20.7519	-8.3923	-0.4578	-3.9673	0	-28.2287	5.4932	3007.5625	1
-7.782	-0.9155	-32.8064	28.0761	-17.5476	-6.2561	6.1035	5.7983	-9.9182	-6.7139	-17.8528	21.0571	-7.3242	0	-3.9673	-0.6104	-29.1443	6.2561	3007.5781	1
-11.2915	0.3052	-32.0434	24.8718	-18.3105	-6.8664	5.0354	6.1035	-11.4441	-7.3242	-17.0898	17.7002	-10.0708	1.2207	-4.2725	-0.9155	-28.8391	7.9346	3007.5938	1
-11.9018	0.9155	-32.959	26.7029	-19.5312	-5.9509	3.5095	6.8664	-10.6811	-8.2397	-16.4795	18.1579	-10.376	-0.3052	-4.7302	0.3052	-26.5503	7.3242	3007.6094	1
-11.2915	5.4932	-36.4685	24.5666	-20.7519	-5.3406	3.9673	5.0354	-8.8501	-7.9346	-19.5312	18.6157	-11.5967	1.0681	-6.4087	-0.1526	-26.8554	5.0354	3007.625	1
-12.207	7.9346	-30.5176	23.9563	-18.9209	-4.425	5.188	6.2561	-7.782	-6.4087	-17.0898	20.4468	-8.6975	0	-4.7302	1.5259	-26.5503	7.6294	3007.6406	1
-15.564	-1.5259	-20.1416	25.6347	-19.6838	-5.3406	5.6457	6.7139	-10.9863	-6.5613	-14.3433	20.2942	-10.6811	1.0681	-4.7302	1.6785	-26.2451	7.9346	3007.6562	1
-16.6321	-9.7656	-14.3433	27.3132	-18.1579	-5.9509	4.7302	6.7139	-13.4277	-7.019	-11.9018	18.9209	-10.5286	0.6104	-4.425	1.6785	-24.2615	7.019	3007.6719	1
-15.564	-11.7493	-14.6484	28.2287	-17.5476	-5.9509	4.1199	7.1716	-14.0381	-5.188	-12.5122	18.0054	-9.9182	0.6104	-4.2725	1.3733	-24.7192	7.1716	3007.6875	1
-14.0381	-10.9863	-16.3269	29.2969	-17.8528	-4.8828	5.3406	6.2561	-13.8855	-5.188	-11.9018	18.9209	-9.613	0.9155	-4.425	1.9836	-25.7873	7.6294	3007.7031	1
-15.564	-5.7983	-18.9209	29.2969	-18.6157	-4.1199	7.019	4.8828	-15.564	-2.4414	-12.6648	19.6838	-10.0708	2.8992	-5.0354	1.3733	-24.5666	8.6975	3007.7188	1
-19.2261	-1.0681	-20.9045	28.8391	-17.8528	-3.6621	4.8828	5.188	-18.4631	-2.8992	-9.4604	18.4631	-9.0027	1.9836	-5.6457	1.2207	-22.583	8.3923	3007.7344	1
-22.2778	3.0518	-21.8201	28.6865	-18.0054	-3.2043	3.5095	5.188	-19.0735	-2.2888	-8.5449	17.5476	-9.613	1.9836	-5.6457	0.7629	-20.9045	7.9346	3007.75	1
-21.5149	3.0518	-23.3459	30.365	-17.8528	-2.594	3.3569	5.4932	-18.6157	-1.8311	-7.782	16.7847	-9.4604	1.8311	-5.7983	1.8311	-21.2097	7.1716	3007.7656	1
-20.5993	3.8147	-23.8037	31.7383	-16.7847	-3.2043	5.7983	5.9509	-18.4631	-0.4578	-8.8501	18.9209	-9.4604	3.2043	-3.8147	1.8311	-20.4468	8.3923	3007.7812	1
-19.0735	4.425	-25.7873	31.5857	-18.0054	-3.3569	6.5613	6.1035	-18.0054	-1.6785	-7.3242	18.1579	-10.0708	3.0518	-3.6621	1.9836	-19.8364	10.0708	3007.7969	1
-20.2942	7.6294	-27.1606	31.1279	-16.9372	-3.0518	4.8828	7.782	-16.9372	-2.8992	-5.4932	16.6321	-9.613	1.9836	-3.8147	4.1199	-18.0054	8.0872	3007.8125	1
-21.0571	9.0027	-25.3296	29.4494	-18.0054	-3.0518	4.7302	7.9346	-16.7847	-0.3052	-6.8664	16.0217	-11.4441	2.8992	-3.3569	3.5095	-17.8528	10.5286	3007.8281	1
-19.3786	9.3079	-25.9399	32.8064	-15.4114	-0.6104	5.6457	7.6294	-13.8855	-0.1526	-7.1716	18.0054	-8.6975	2.8992	-1.5259	4.5776	-19.3786	10.6811	3007.8438	1
-20.1416	6.7139	-23.8037	32.959	-14.6484	-0.3052	4.8828	7.6294	-16.1743	0.1526	-7.782	19.5312	-6.8664	6.2561	-4.5776	2.7466	-21.3623	13.4277	3007.8594	1
-22.4304	6.2561	-23.3459	30.2124	-16.3269	-0.7629	3.8147	5.3406	-15.2588	-1.8311	-8.6975	16.4795	-9.7656	4.1199	-4.5776	2.2888	-21.8201	13.1225	3007.875	1
-23.0408	5.188	-23.8037	30.365	-17.2424	-0.1526	1.8311	7.019	-13.7329	-3.9673	-8.3923	14.801	-9.0027	2.4414	-4.2725	2.2888	-21.3623	11.7493	3007.8906	1
-21.5149	5.4932	-24.7192	30.0598	-16.1743	0.3052	0	6.8664	-11.2915	-4.5776	-9.1553	14.3433	-9.0027	2.8992	-4.1199	1.2207	-21.8201	12.8174	3007.9062	1
-19.0735	5.6457	-26.7029	31.4331	-14.801	0.6104	0.9155	8.2397	-9.3079	-5.0354	-9.4604	15.1062	-7.6294	3.3569	-3.2043	2.4414	-21.5149	12.3596	3007.9219	1
-16.7847	3.5095	-28.0761	32.3486	-14.801	1.5259	0.4578	7.782	-6.8664	-7.4768	-10.5286	15.8691	-7.3242	3.2043	-4.1199	3.2043	-22.583	13.1225	3007.9375	1
-18.0054	3.9673	-28.0761	29.7546	-14.9536	1.5259	-1.0681	9.1553	-4.8828	-9.1553	-12.3596	14.0381	-8.5449	1.5259	-3.0518	4.7302	-21.2097	11.9018	3007.9531	1
-16.3269	7.3242	-29.1443	25.0244	-16.9372	3.6621	-1.2207	7.782	-1.3733	-5.6457	-18.4631	12.3596	-9.613	1.8311	-3.3569	4.425	-19.989	10.9863	3007.9688	1
-13.7329	7.1716	-29.4494	25.3296	-15.7165	4.5776	-1.8311	7.9346	-4.5776	-3.8147	-16.1743	13.8855	-7.9346	1.0681	-2.1362	3.9673	-21.0571	10.5286	3007.9844	1
-2.594	1.0681	0.3052	-15.4114	1.6785	2.594	-5.188	-7.9346	16.7847	-6.5613	-13.7329	-13.1225	-1.3733	3.2043	-10.8337	0.1526	7.019	-7.1716	3256	1
-2.594	0	0	-14.3433	0.7629	2.8992	-5.7983	-8.3923	11.2915	-5.6457	-9.4604	-13.1225	-1.2207	3.6621	-13.1225	0.1526	7.3242	-7.4768	3256.0156	1
-2.7466	0.3052	-0.4578	-12.5122	2.1362	1.2207	-2.1362	-9.7656	5.4932	-1.3733	-8.8501	-10.6811	-0.1526	3.9673	-13.8855	1.5259	6.8664	-5.0354	3256.0312	1
-3.3569	0.1526	-0.6104	-9.9182	2.4414	-0.1526	-1.0681	-8.2397	2.7466	-1.3733	-5.3406	-9.7656	0.4578	3.0518	-14.0381	3.5095	5.7983	-3.8147	3256.0469	1
-6.5613	0.6104	0.9155	-10.5286	3.0518	-2.2888	0.4578	-9.0027	-1.2207	-0.3052	-3.3569	-10.6811	-0.4578	2.8992	-14.1907	3.9673	8.2397	-4.7302	3256.0625	1
-7.4768	3.0518	0.4578	-12.5122	1.9836	0	-2.4414	-8.5449	-1.2207	0.4578	-3.6621	-12.0544	-0.9155	3.5095	-15.4114	3.8147	8.5449	-7.1716	3256.0781	1
-6.1035	2.594	1.2207	-11.5967	4.2725	-0.9155	-2.2888	-8.6975	-0.7629	1.3733	-3.8147	-10.6811	0.4578	4.1199	-16.1743	3.9673	8.2397	-8.8501	3256.0938	1
-3.6621	2.594	-0.3052	-10.8337	3.3569	-1.3733	-1.9836	-7.1716	-0.3052	1.3733	-3.6621	-9.613	-0.6104	5.3406	-16.7847	4.8828	6.8664	-9.1553	3256.1094	1
-5.188	1.5259	0.3052	-11.9018	4.5776	-1.8311	-1.3733	-6.4087	-1.0681	-0.9155	-2.4414	-10.8337	-0.3052	6.4087	-15.564	4.425	6.1035	-8.2397	3256.125	1
-5.9509	1.2207	0.3052	-10.9863	3.6621	-2.2888	-1.6785	-6.5613	-0.6104	-1.5259	-1.6785	-11.5967	-1.0681	4.7302	-14.4958	3.9673	6.2561	-6.4087	3256.1406	1
-5.188	0	0.7629	-11.4441	4.2725	-3.2043	-0.6104	-6.5613	1.2207	-1.5259	-3.9673	-11.5967	0.3052	3.3569	-15.1062	5.3406	3.5095	-5.6457	3256.1562	1
-3.9673	-1.3733	0.1526	-9.4604	4.2725	-3.0518	-0.1526	-5.188	1.3733	0.4578	-7.019	-9.4604	0.4578	3.9673	-13.5803	5.0354	1.5259	-4.7302	3256.1719	1
-3.5095	-1.5259	-0.1526	-8.2397	3.2043	-2.7466	0.4578	-4.7302	3.3569	0.3052	-7.6294	-9.4604	-0.3052	4.2725	-14.1907	6.4087	0.4578	-3.8147	3256.1875	1
-4.2725	-2.4414	0.1526	-7.9346	3.5095	-3.5095	0.4578	-4.2725	3.2043	0.3052	-7.3242	-10.6811	-0.9155	3.5095	-13.5803	7.1716	2.2888	-4.1199	3256.2031	1
-5.7983	-1.6785	1.6785	-9.7656	3.2043	-3.6621	-0.1526	-4.5776	3.5095	2.7466	-9.4604	-12.3596	-1.8311	3.0518	-13.7329	7.3242	3.9673	-5.3406	3256.2188	1
-5.0354	-0.9155	2.594	-11.4441	4.1199	-4.1199	-0.6104	-4.425	3.8147	7.1716	-12.5122	-13.2751	-0.1526	2.2888	-13.5803	6.4087	5.0354	-6.8664	3256.2344	1
-4.425	0.4578	1.0681	-9.0027	3.8147	-4.7302	0.7629	-3.9673	4.5776	10.0708	-15.4114	-11.1389	-0.6104	2.594	-13.2751	7.1716	5.0354	-7.4768	3256.25	1
-5.3406	-0.1526	2.594	-9.1553	4.425	-5.7983	1.6785	-3.5095	4.1199	7.9346	-12.0544	-12.0544	-0.3052	2.7466	-13.5803	7.9346	6.8664	-7.4768	3256.2656	1
-8.8501	1.3733	3.8147	-9.1553	3.3569	-7.782	1.3733	-3.2043	2.7466	6.1035	-10.2234	-11.4441	-1.2207	1.3733	-13.8855	7.4768	4.8828	-6.4087	3256.2812	1
-6.5613	1.3733	3.2043	-9.9182	3.5095	-7.1716	-0.3052	-1.8311	6.5613	3.0518	-8.8501	-12.6648	-1.5259	0.4578	-12.8174	8.0872	4.7302	-6.8664	3256.2969	1
-3.8147	0.7629	2.2888	-8.3923	2.8992	-6.5613	2.1362	-3.3569	9.0027	2.1362	-8.6975	-11.5967	-1.0681	1.3733	-13.8855	8.6975	5.4932	-7.4768	3256.3125	1
-1.9836	-0.7629	2.1362	-6.1035	3.9673	-7.782	4.1199	-2.4414	9.9182	2.594	-9.0027	-10.2234	-0.9155	0.1526	-10.376	9.0027	5.0354	-7.019	3256.3281	1
-3.2043	1.2207	3.0518	-6.5613	5.3406	-8.2397	3.8147	-2.7466	8.6975	3.0518	-7.019	-10.2234	1.6785	2.8992	-12.5122	6.1035	7.1716	-7.9346	3256.3438	1
-6.5613	-1.9836	4.425	-8.5449	2.1362	-9.4604	0.6104	-2.2888	9.3079	4.1199	-12.97	-13.1225	-2.8992	-0.3052	-13.4277	7.6294	5.3406	-7.4768	3256.3594	1
-6.1035	-2.2888	3.3569	-9.7656	1.0681	-9.4604	0.6104	-2.4414	11.7493	5.0354	-16.9372	-14.6484	-1.9836	-0.7629	-14.9536	7.4768	6.1035	-11.1389	3256.375	1
-2.594	-3.9673	2.4414	-9.3079	1.8311	-9.0027	1.8311	-2.1362	12.3596	4.1199	-17.395	-12.5122	-0.9155	-0.9155	-13.5803	7.9346	5.4932	-11.5967	3256.3906	1
-3.6621	-2.8992	2.2888	-10.8337	1.8311	-9.613	3.9673	-3.3569	10.9863	0.1526	-13.7329	-12.5122	-2.1362	-0.1526	-12.3596	7.4768	5.7983	-10.376	3256.4062	1
-3.8147	-2.594	1.6785	-11.5967	2.594	-9.9182	3.3569	-2.7466	9.0027	-4.2725	-6.8664	-14.1907	-1.2207	-1.2207	-12.0544	7.782	8.5449	-12.8174	3256.4219	1
-5.188	-2.4414	1.6785	-11.4441	2.594	-11.5967	1.5259	0	4.7302	-3.5095	-4.7302	-13.8855	-3.0518	-2.4414	-10.6811	8.6975	9.613	-15.4114	3256.4375	1
-5.6457	-0.1526	0	-10.9863	1.6785	-11.1389	3.0518	-1.9836	3.3569	-2.2888	-5.188	-12.6648	-2.594	-3.0518	-11.2915	8.5449	8.6975	-16.1743	3256.4531	1
-5.0354	-0.7629	0.1526	-9.9182	3.6621	-11.5967	2.2888	-0.1526	0.7629	0.7629	-6.5613	-10.5286	-0.9155	-4.1199	-10.2234	9.4604	7.9346	-17.2424	3256.4688	1
-6.4087	-0.4578	0.7629	-10.6811	3.9673	-12.6648	3.3569	-1.0681	-1.5259	0.3052	-4.1199	-11.4441	-1.5259	-2.594	-11.2915	9.0027	8.8501	-16.6321	3256.4844	1
-7.4768	0.3052	0.4578	-9.9182	3.9673	-12.0544	2.594	-1.2207	-2.1362	2.2888	-4.2725	-12.5122	-1.3733	-3.6621	-10.9863	9.3079	9.613	-18.3105	3256.5	1
-5.7983	-0.7629	1.0681	-9.7656	4.1199	-10.376	-0.1526	-1.5259	0	3.8147	-6.8664	-12.207	-0.6104	-4.5776	-11.4441	8.6975	9.613	-18.6157	3256.5156	1
-3.8147	-0.6104	-0.3052	-9.0027	3.9673	-10.0708	0.4578	-3.0518	0.9155	5.7983	-9.7656	-10.6811	-1.0681	-3.2043	-11.7493	7.3242	7.4768	-18.4631	3256.5312	1
-2.1362	-3.5095	-0.3052	-7.4768	3.8147	-9.0027	-0.6104	-3.0518	1.8311	4.1199	-9.1553	-10.2234	-0.3052	-3.2043	-11.7493	6.4087	9.3079	-17.8528	3256.5469	1
-5.0354	-2.7466	-0.3052	-8.6975	2.8992	-8.6975	0.9155	-3.5095	1.2207	3.6621	-10.9863	-10.6811	-2.2888	-2.594	-10.376	6.8664	9.4604	-18.0054	3256.5625	1
-3.6621	-2.7466	0.1526	-9.0027	3.8147	-9.0027	-0.3052	-1.9836	2.7466	5.0354	-11.9018	-11.1389	-1.3733	-4.2725	-9.0027	7.1716	11.9018	-19.3786	3256.5781	1
-2.2888	-0.7629	-1.6785	-9.3079	3.0518	-6.7139	0.3052	-4.1199	5.4932	5.3406	-13.5803	-11.2915	-1.9836	-3.2043	-8.6975	6.4087	12.8174	-20.4468	3256.5938	1
-0.1526	-1.5259	-2.594	-7.782	3.8147	-7.9346	1.9836	-3.3569	6.4087	6.7139	-16.3269	-8.8501	-1.3733	-2.2888	-8.5449	6.7139	13.1225	-18.7683	3256.6094	1
-0.4578	-1.8311	-1.2207	-8.6975	3.6621	-7.019	1.0681	-3.5095	7.019	7.3242	-16.0217	-10.5286	-1.3733	-2.8992	-8.2397	6.7139	13.2751	-19.5312	3256.625	1
-3.2043	-1.0681	-1.5259	-8.8501	5.9509	-7.6294	-1.2207	-2.8992	7.1716	6.1035	-16.3269	-11.5967	-1.6785	-2.7466	-8.5449	7.1716	13.1225	-19.2261	3256.6406	1
-3.9673	-1.5259	0	-8.3923	5.4932	-7.3242	-1.6785	-3.9673	7.019	6.8664	-16.7847	-10.9863	-1.6785	-3.8147	-7.4768	5.4932	10.5286	-16.9372	3256.6562	1
-1.9836	-1.8311	-1.5259	-5.6457	6.4087	-6.4087	-1.0681	-4.5776	6.7139	7.019	-16.3269	-8.3923	0	-2.2888	-9.3079	5.9509	7.9346	-16.4795	3256.6719	1
-1.8311	-2.4414	-1.6785	-4.8828	5.4932	-8.3923	0.7629	-3.6621	5.4932	6.2561	-14.9536	-7.6294	-0.3052	-3.0518	-8.0872	5.6457	7.6294	-14.4958	3256.6875	1
-3.2043	-1.2207	-1.8311	-7.019	2.7466	-9.9182	1.3733	-4.8828	3.8147	6.1035	-14.0381	-9.1553	-1.8311	-3.8147	-9.4604	4.425	5.6457	-14.6484	3256.7031	1
-3.5095	-3.3569	-1.0681	-6.5613	2.1362	-11.1389	-0.9155	-3.9673	2.4414	9.7656	-16.0217	-10.6811	-2.1362	-5.188	-10.5286	3.9673	2.4414	-12.6648	3256.7188	1
-2.4414	-3.6621	-1.2207	-7.019	2.594	-9.7656	-0.4578	-5.4932	3.6621	12.207	-19.989	-10.2234	0.1526	-4.7302	-11.1389	2.594	2.8992	-14.4958	3256.7344	1
0.3052	-4.425	-3.0518	-6.1035	2.594	-10.5286	0.7629	-6.4087	3.5095	11.9018	-20.1416	-8.5449	-1.2207	-3.9673	-10.8337	2.4414	2.2888	-13.8855	3256.75	1
-1.3733	-5.6457	-2.8992	-5.6457	1.5259	-10.0708	-0.1526	-6.2561	1.5259	5.9509	-14.801	-8.2397	-1.0681	-3.5095	-11.7493	1.3733	2.7466	-13.1225	3256.7656	1
-2.1362	-6.1035	-2.7466	-5.3406	1.3733	-11.2915	-1.3733	-6.1035	0.9155	1.6785	-9.4604	-9.4604	-2.2888	-3.9673	-11.5967	0.4578	3.0518	-13.5803	3256.7812	1
-2.7466	-4.5776	-3.3569	-4.1199	1.9836	-10.0708	-2.7466	-5.7983	1.8311	-0.7629	-8.2397	-7.6294	-1.9836	-4.2725	-11.9018	1.5259	2.8992	-14.1907	3256.7969	1
1.2207	-3.3569	-3.0518	-2.8992	5.7983	-10.5286	-1.9836	-4.8828	3.5095	-0.7629	-5.3406	-5.4932	0.4578	-2.1362	-11.1389	1.2207	3.8147	-15.2588	3256.8125	1
0.1526	-4.7302	-3.9673	-3.6621	4.425	-11.9018	-2.594	-6.8664	1.6785	-1.9836	-5.3406	-6.5613	-0.4578	-4.2725	-13.8855	1.6785	3.8147	-19.0735	3256.8281	1
-3.2043	-2.8992	-2.8992	-5.7983	2.594	-10.5286	-5.4932	-7.019	-0.1526	-2.594	-3.5095	-8.5449	-2.1362	-5.188	-15.2588	2.1362	3.3569	-19.5312	3256.8438	1
-5.188	-1.8311	-2.594	-6.7139	1.5259	-10.6811	-6.8664	-6.7139	-2.1362	-0.4578	-3.2043	-10.5286	-3.9673	-5.4932	-15.2588	1.9836	6.1035	-21.3623	3256.8594	1
-4.425	-1.2207	-2.8992	-6.2561	1.6785	-11.1389	-5.7983	-7.6294	-1.2207	-0.6104	-3.5095	-9.4604	-3.5095	-5.6457	-14.801	1.0681	6.5613	-20.9045	3256.875	1
-2.594	-1.3733	-2.7466	-5.188	3.3569	-12.0544	-2.7466	-7.1716	-1.2207	1.0681	-4.7302	-7.019	-1.2207	-5.4932	-13.1225	1.2207	6.8664	-23.1933	3256.8906	1
-1.0681	-2.1362	-3.5095	-4.8828	3.9673	-12.8174	-2.594	-7.782	-1.8311	0.9155	-4.425	-6.2561	-0.6104	-6.5613	-12.97	0.9155	7.782	-23.4985	3256.9062	1
-2.7466	-1.9836	-2.1362	-6.7139	2.4414	-14.4958	-1.9836	-7.3242	-2.4414	0	-2.8992	-8.2397	-2.7466	-6.4087	-13.1225	0.9155	8.5449	-22.8882	3256.9219	1
-2.2888	-2.1362	-3.0518	-6.7139	3.5095	-14.9536	-2.4414	-6.7139	-1.6785	-0.7629	-3.5095	-8.2397	-1.3733	-8.0872	-13.4277	2.2888	8.3923	-22.583	3256.9375	1
-2.1362	-2.2888	-2.4414	-6.7139	3.3569	-13.8855	-0.1526	-6.8664	-2.7466	1.3733	-5.9509	-6.2561	-1.3733	-7.019	-11.7493	2.594	8.8501	-22.583	3256.9531	1
0.7629	-3.3569	-3.6621	-5.4932	5.188	-12.97	-0.9155	-5.7983	-1.3733	-0.3052	-4.5776	-5.4932	0.4578	-7.1716	-11.1389	3.3569	8.6975	-21.3623	3256.9688	1
-1.3733	-3.8147	-1.9836	-7.4768	4.1199	-11.5967	-2.2888	-6.7139	-3.3569	-0.9155	-3.8147	-6.5613	-1.0681	-6.5613	-10.8337	1.9836	8.6975	-20.5993	3256.9844	1
0	-1.5259	4.1199	-1.3733	-1.0681	-2.4414	4.8828	-7.3242	3.2043	-2.2888	2.7466	-2.4414	0.4578	-2.1362	0.7629	-5.0354	-2.8992	-1.5259	3851	1
0.1526	-0.3052	4.1199	-1.9836	-1.5259	-1.8311	5.188	-7.4768	4.5776	-2.1362	1.9836	-2.4414	-0.3052	-1.2207	0.3052	-4.425	-1.0681	-1.5259	3851.0156	1
2.1362	-0.9155	2.8992	-1.0681	-0.6104	-2.4414	6.8664	-7.3242	4.2725	0.3052	0	-1.5259	0.4578	-0.7629	1.0681	-4.2725	-0.3052	-1.3733	3851.0312	1
1.9836	-1.2207	3.6621	-0.9155	-0.7629	-2.4414	7.1716	-6.5613	3.3569	-0.3052	1.2207	-0.7629	0.1526	-0.7629	1.3733	-3.3569	1.0681	-1.8311	3851.0469	1
1.0681	-1.5259	3.9673	-1.3733	0.6104	-3.2043	6.4087	-5.7983	2.4414	-1.3733	2.7466	-1.6785	1.2207	-1.5259	0.7629	-2.4414	0.4578	-1.8311	3851.0625	1
0.6104	-0.4578	4.8828	-1.6785	0.6104	-3.3569	5.3406	-6.4087	3.9673	-1.5259	2.4414	-1.5259	1.0681	-1.5259	0.1526	-3.5095	-0.7629	-0.6104	3851.0781	1
0.1526	-0.7629	4.425	-1.0681	0	-1.8311	3.8147	-4.5776	3.0518	0.3052	0.6104	-1.2207	0.7629	-1.3733	0.4578	-2.4414	-0.9155	0.7629	3851.0938	1
3.0518	-1.0681	3.6621	0.7629	0.9155	-1.9836	5.9509	-6.4087	5.0354	-0.1526	0.7629	0.7629	2.1362	-0.6104	1.0681	-4.1199	0	-1.5259	3851.1094	1
0.9155	-1.0681	4.2725	0.1526	0	-2.4414	5.188	-4.7302	3.5095	-1.3733	1.9836	0.1526	1.2207	-0.6104	0.4578	-3.0518	1.2207	-3.3569	3851.125	1
0.1526	-0.7629	5.0354	-2.1362	0.3052	-2.7466	3.6621	-3.6621	2.594	-0.9155	2.2888	-1.6785	1.5259	-0.9155	0.6104	-3.6621	2.1362	-5.6457	3851.1406	1
0.9155	-0.1526	4.5776	-2.1362	-0.4578	-3.0518	3.2043	-3.6621	3.3569	0.3052	1.0681	-1.5259	0.6104	-1.5259	1.0681	-4.1199	2.1362	-6.7139	3851.1562	1
2.4414	-0.4578	4.7302	-1.9836	1.3733	-2.594	4.425	-4.7302	4.1199	1.0681	0.4578	-0.9155	2.1362	-1.3733	2.594	-4.8828	2.8992	-6.5613	3851.1719	1
3.9673	-1.8311	4.1199	-0.4578	2.1362	-2.594	5.3406	-5.3406	4.2725	-0.1526	1.5259	0.1526	2.7466	-0.4578	2.7466	-5.4932	-0.3052	-4.7302	3851.1875	1
2.594	-1.3733	3.9673	-1.6785	0	-2.7466	4.1199	-4.7302	3.3569	-1.3733	2.1362	-0.6104	0.6104	-1.0681	2.4414	-5.3406	0.1526	-5.3406	3851.2031	1
0.9155	-2.1362	4.7302	-1.6785	0.1526	-2.7466	2.2888	-5.3406	2.2888	-0.9155	1.8311	-1.3733	-0.3052	-1.0681	1.6785	-5.9509	-1.3733	-4.425	3851.2188	1
1.8311	-2.2888	4.1199	-0.9155	0.9155	-2.8992	2.7466	-6.1035	3.5095	0	-0.4578	-0.3052	1.3733	-1.9836	1.9836	-6.7139	-1.9836	-4.8828	3851.2344	1
4.5776	-4.1199	4.425	-0.6104	0.9155	-2.594	4.7302	-7.6294	4.8828	0.1526	-1.3733	0.6104	2.1362	-1.3733	2.2888	-7.6294	-4.2725	-2.1362	3851.25	1
2.7466	-4.2725	4.425	-0.7629	0.6104	-3.2043	3.3569	-6.1035	4.1199	-2.2888	0.7629	-0.4578	1.5259	-1.6785	2.1362	-7.3242	-5.0354	-2.1362	3851.2656	1
0.9155	-4.425	6.1035	-1.5259	0.4578	-4.2725	3.2043	-6.1035	3.2043	-2.1362	1.5259	-1.5259	0.3052	-1.3733	1.8311	-7.4768	-5.3406	-1.3733	3851.2812	1
1.2207	-4.1199	6.4087	-1.0681	-0.6104	-3.3569	1.6785	-4.425	5.0354	-2.1362	1.0681	-1.5259	-0.7629	-1.3733	2.2888	-6.8664	-4.425	-2.594	3851.2969	1
2.2888	-3.6621	5.9509	-1.6785	0.4578	-2.2888	2.1362	-5.6457	5.188	-1.3733	0.4578	-1.3733	0.6104	-0.3052	1.9836	-7.6294	-4.2725	-2.1362	3851.3125	1
2.7466	-3.2043	4.7302	0.9155	1.0681	-2.4414	3.0518	-5.4932	4.8828	-1.6785	0.9155	1.0681	1.0681	0.3052	2.594	-7.782	-4.7302	0.3052	3851.3281	1
1.6785	-3.0518	5.6457	0.7629	0.3052	-1.9836	3.6621	-4.5776	5.0354	-1.8311	2.7466	-0.9155	-1.0681	-0.4578	6.2561	-7.3242	-3.5095	-2.7466	3851.3438	1
1.2207	-2.4414	7.019	1.0681	1.3733	-1.3733	2.1362	-12.5122	2.7466	-2.2888	5.3406	1.0681	1.0681	3.2043	2.8992	-17.5476	-1.6785	0.4578	3851.3594	1
0.3052	-2.594	6.4087	-1.5259	-0.4578	-1.2207	1.3733	-16.1743	3.6621	-0.7629	1.3733	-1.6785	-1.6785	0.6104	3.6621	-19.0735	-1.9836	-1.5259	3851.375	1
3.2043	-2.8992	5.7983	0.7629	-0.3052	-0.6104	3.8147	-17.2424	4.7302	0.3052	0.9155	0.9155	0.3052	0.9155	3.8147	-19.3786	-2.2888	0.4578	3851.3906	1
2.594	-2.1362	5.9509	1.0681	-0.9155	1.0681	3.3569	-18.9209	5.0354	-0.1526	1.3733	1.2207	0	1.3733	4.425	-21.2097	-1.3733	-0.6104	3851.4062	1
0.9155	-1.8311	7.3242	-0.9155	-1.3733	-0.3052	5.0354	-20.2942	2.8992	-0.1526	3.5095	-0.7629	-0.6104	0.4578	5.4932	-22.2778	0.4578	-1.8311	3851.4219	1
0.4578	-1.3733	7.019	-0.9155	-1.5259	-0.6104	3.3569	-19.8364	2.8992	0.1526	3.3569	-1.2207	-0.9155	0	5.188	-22.8882	0	-1.6785	3851.4375	1
1.8311	-1.3733	5.6457	-1.2207	-0.1526	-0.9155	3.5095	-21.2097	4.425	0.4578	0.9155	-0.9155	0.4578	-0.3052	4.5776	-23.4985	0	-2.594	3851.4531	1
3.9673	-1.8311	4.5776	-0.3052	0.3052	0.1526	5.188	-22.583	5.0354	0.1526	0.9155	0.3052	0.9155	-0.6104	5.188	-22.4304	-1.2207	-1.8311	3851.4688	1
2.8992	-2.2888	4.8828	-0.4578	0.1526	-0.4578	4.2725	-22.4304	3.8147	-0.7629	1.6785	0.3052	0.6104	-0.9155	3.2043	-21.3623	-1.2207	-1.8311	3851.4844	1
2.594	-1.5259	4.425	-0.7629	0.6104	-1.0681	4.1199	-23.3459	4.1199	-1.2207	3.0518	-1.2207	-0.1526	-1.0681	3.8147	-22.2778	-0.3052	-1.8311	3851.5	1
2.1362	-1.6785	4.5776	-1.9836	0.6104	0.1526	2.594	-23.3459	3.8147	-0.9155	2.1362	-1.9836	0.1526	-0.4578	2.4414	-22.1252	-0.7629	-1.9836	3851.5156	1
4.7302	-0.7629	3.9673	-2.4414	2.7466	1.5259	3.6621	-25.3296	6.1035	0	0.6104	-1.2207	2.7466	-0.4578	3.3569	-23.0408	-0.3052	-3.0518	3851.5312	1
5.188	-1.2207	3.2043	-0.9155	2.4414	1.2207	4.5776	-24.8718	5.6457	-0.9155	1.8311	-0.3052	1.6785	0.7629	3.3569	-22.4304	0.1526	-2.4414	3851.5469	1
3.2043	-1.5259	4.7302	-2.1362	0.9155	1.5259	4.5776	-25.177	3.9673	-1.6785	3.5095	-1.5259	0.4578	0.4578	3.2043	-22.2778	1.9836	-3.0518	3851.5625	1
1.9836	-0.7629	5.3406	-1.6785	1.0681	1.3733	4.1199	-23.8037	4.425	-1.5259	3.0518	-1.0681	0	1.3733	3.2043	-21.8201	2.8992	-1.5259	3851.5781	1
2.2888	0.1526	6.1035	-1.6785	1.2207	0.9155	4.5776	-24.2615	4.7302	0.1526	3.2043	-1.2207	0.1526	3.2043	1.9836	-22.8882	1.5259	0.6104	3851.5938	1
3.3569	0.6104	5.3406	-1.2207	1.2207	1.2207	5.7983	-23.4985	5.188	1.3733	1.8311	-0.3052	1.0681	2.8992	2.7466	-21.9726	-0.1526	0.4578	3851.6094	1
2.594	-0.3052	5.7983	-2.4414	1.2207	-0.1526	6.1035	-24.8718	3.9673	-0.3052	3.8147	-1.8311	1.2207	1.2207	2.8992	-23.0408	0.7629	0.4578	3851.625	1
1.3733	0.3052	6.2561	-2.4414	0.6104	-0.4578	4.425	-23.4985	2.8992	1.3733	3.6621	-2.4414	0.9155	1.5259	0.9155	-22.2778	1.5259	-1.2207	3851.6406	1
1.6785	0.4578	6.7139	-2.7466	0.9155	-1.3733	4.1199	-23.9563	3.6621	2.4414	2.4414	-2.4414	0.6104	0.9155	1.0681	-22.8882	3.6621	-2.7466	3851.6562	1
3.3569	0.9155	6.1035	-2.4414	1.9836	-3.2043	6.1035	-24.1089	5.7983	2.4414	2.7466	-3.0518	1.2207	0.6104	1.2207	-22.2778	3.8147	-4.2725	3851.6719	1
4.5776	1.9836	5.188	-1.3733	2.4414	-2.594	7.3242	-23.9563	7.9346	2.594	1.6785	-1.8311	1.6785	1.6785	1.9836	-22.1252	2.2888	-1.8311	3851.6875	1
3.5095	1.3733	5.3406	-1.9836	1.8311	-2.1362	6.5613	-24.8718	6.1035	0.6104	4.1199	-2.594	2.1362	-0.1526	1.8311	-22.4304	3.3569	-1.9836	3851.7031	1
3.0518	1.3733	6.2561	-1.9836	2.7466	-3.0518	6.5613	-24.8718	7.019	1.5259	3.0518	-2.8992	2.1362	0.9155	0.6104	-22.2778	3.9673	-2.7466	3851.7188	1
2.594	0.7629	6.8664	-2.1362	2.4414	-2.594	4.8828	-25.6347	7.1716	1.2207	1.5259	-1.8311	1.9836	0	0.6104	-23.4985	2.4414	-2.7466	3851.7344	1
4.425	0.3052	5.7983	-1.6785	3.2043	-2.2888	5.7983	-25.6347	7.782	0.7629	1.5259	-1.2207	3.0518	0	0.7629	-22.7356	1.2207	-2.1362	3851.75	1
3.8147	0.6104	5.6457	-1.9836	4.5776	-3.0518	5.7983	-25.6347	6.8664	0	2.8992	-1.6785	2.594	1.9836	0.3052	-23.1933	0.9155	-1.8311	3851.7656	1
1.5259	0.3052	7.019	-4.1199	3.6621	-3.6621	5.4932	-26.8554	5.4932	-0.6104	2.7466	-2.8992	1.6785	1.3733	-0.3052	-24.1089	1.0681	-2.2888	3851.7812	1
1.2207	0.1526	7.3242	-4.1199	2.7466	-2.4414	3.0518	-25.9399	5.188	0	2.594	-3.2043	0.7629	1.3733	0.1526	-24.8718	1.9836	-2.1362	3851.7969	1
2.4414	0	7.4768	-4.5776	3.2043	-2.594	5.0354	-27.6184	5.7983	0.9155	1.8311	-3.2043	1.6785	1.8311	0.6104	-26.0925	2.1362	-1.8311	3851.8125	1
3.6621	-0.3052	6.8664	-3.3569	3.8147	-1.2207	7.019	-27.008	7.4768	1.0681	1.2207	-2.8992	1.9836	2.4414	2.4414	-24.2615	3.2043	-0.9155	3851.8281	1
3.2043	0.6104	7.3242	-3.6621	3.9673	-2.1362	6.5613	-27.008	5.0354	-1.2207	5.3406	-1.6785	3.2043	6.8664	-0.7629	-27.9236	2.1362	-0.9155	3851.8438	1
0	0.7629	8.2397	-5.9509	1.6785	-2.7466	5.0354	-26.2451	4.425	-0.9155	3.8147	-4.2725	0.3052	4.1199	-0.9155	-25.7873	1.5259	-1.0681	3851.8594	1
0.9155	0.7629	8.3923	-6.4087	2.1362	-2.1362	4.2725	-26.7029	4.7302	1.6785	2.594	-5.3406	0.6104	4.1199	-0.9155	-26.2451	0.6104	-0.6104	3851.875	1
2.2888	1.0681	7.6294	-5.9509	1.6785	-1.6785	4.5776	-26.5503	4.425	2.7466	2.4414	-4.5776	-0.1526	4.5776	-1.2207	-25.177	1.8311	-2.1362	3851.8906	1
1.8311	1.5259	7.6294	-5.7983	0.6104	-1.8311	4.5776	-27.3132	3.8147	2.2888	3.2043	-4.1199	-1.2207	4.1199	-1.6785	-25.177	0.6104	-1.9836	3851.9062	1
0.4578	1.8311	7.9346	-7.3242	0.7629	-1.8311	2.1362	-26.0925	3.6621	0.3052	3.9673	-5.0354	-0.4578	1.8311	-1.5259	-24.8718	0	-3.8147	3851.9219	1
-0.1526	1.8311	8.3923	-7.782	1.3733	-2.1362	0.9155	-27.008	3.0518	1.6785	3.2043	-5.6457	-0.7629	1.5259	-2.594	-25.0244	0.6104	-2.4414	3851.9375	1
0.7629	2.594	6.8664	-7.3242	0.9155	-1.6785	1.3733	-28.0761	3.9673	2.2888	2.594	-5.9509	-0.1526	0.7629	-3.2043	-24.8718	0.1526	-2.4414	3851.9531	1
1.6785	2.7466	5.9509	-6.7139	2.4414	-2.4414	3.0518	-28.2287	4.7302	1.3733	1.8311	-4.2725	1.5259	0.6104	-3.0518	-24.2615	-1.5259	-0.7629	3851.9688	1
1.5259	0.6104	6.8664	-6.8664	2.1362	-2.8992	1.5259	-27.1606	3.5095	0.6104	2.8992	-4.8828	0.9155	-0.1526	-3.9673	-23.1933	-3.2043	0.9155	3851.9844	1
1.5259	-7.782	1.2207	7.6294	-0.6104	3.6621	-2.1362	1.3733	0	-13.8855	2.8992	13.5803	-0.3052	0.3052	3.0518	-0.7629	5.7983	-2.1362	3992	1
4.425	-8.5449	1.3733	7.6294	0.3052	2.7466	-0.7629	1.2207	2.2888	-12.8174	1.6785	13.7329	0.6104	-0.1526	4.2725	-1.2207	3.3569	0.7629	3992.0156	1
4.1199	-8.0872	1.3733	8.6975	-0.1526	2.1362	0.6104	2.1362	0.6104	-12.3596	1.8311	16.0217	0.1526	0.7629	4.1199	-0.3052	0.4578	4.1199	3992.0312	1
1.0681	-8.5449	4.7302	6.7139	-1.3733	1.9836	0.6104	1.9836	0	-13.5803	3.2043	14.3433	-0.6104	-0.6104	4.1199	0.3052	0.7629	0.7629	3992.0469	1
-1.6785	-8.0872	5.3406	7.3242	-1.0681	2.2888	-0.9155	2.2888	-1.5259	-13.1225	3.2043	14.3433	0	-1.6785	3.6621	0.6104	1.0681	0	3992.0625	1
-0.3052	-7.6294	3.8147	7.1716	-1.8311	1.9836	-1.0681	1.0681	-1.5259	-12.0544	2.1362	14.4958	-1.0681	-1.5259	2.7466	0	1.3733	-0.9155	3992.0781	1
3.3569	-7.1716	0.9155	9.0027	-0.3052	2.594	-0.7629	1.3733	0.4578	-12.207	1.5259	16.3269	0	-0.3052	3.2043	0	3.3569	-3.5095	3992.0938	1
4.1199	-7.019	-0.3052	8.3923	-0.4578	4.1199	-1.0681	0	-0.1526	-12.5122	0.9155	16.9372	0.7629	-1.2207	3.3569	-0.3052	3.5095	-3.5095	3992.1094	1
4.2725	-7.019	-1.2207	7.1716	-0.1526	2.7466	-2.1362	0.7629	0.1526	-13.4277	0.7629	15.7165	0	-1.2207	2.8992	-0.4578	3.2043	-3.5095	3992.125	1
3.6621	-5.6457	-1.9836	7.019	0	2.7466	-2.594	0.3052	1.2207	-13.8855	0.3052	15.4114	-0.4578	-0.7629	2.1362	-0.4578	3.5095	-2.4414	3992.1406	1
2.594	-7.019	0	7.6294	-1.0681	4.5776	-2.1362	-0.6104	1.2207	-14.6484	0.1526	16.4795	0	-0.9155	2.2888	-0.6104	3.8147	-3.2043	3992.1562	1
2.7466	-8.2397	1.3733	9.3079	0.1526	4.7302	-1.3733	1.0681	0.7629	-13.7329	0.1526	18.0054	2.1362	-0.6104	3.3569	-0.3052	0.7629	0.3052	3992.1719	1
1.9836	-8.3923	2.594	9.4604	0	4.2725	-1.0681	0.1526	0	-14.1907	1.8311	18.0054	0.7629	-0.6104	3.8147	-0.6104	1.8311	-2.2888	3992.1875	1
1.5259	-8.6975	2.8992	8.8501	-0.9155	3.6621	-2.594	1.9836	-0.1526	-15.4114	3.0518	17.0898	-0.1526	-1.3733	3.6621	0	4.1199	-3.0518	3992.2031	1
2.2888	-7.4768	2.594	7.9346	-0.9155	3.9673	-2.594	1.3733	1.0681	-14.801	2.594	16.4795	-0.6104	-0.6104	4.2725	-1.2207	4.8828	-5.3406	3992.2188	1
3.9673	-8.6975	2.8992	10.376	0	4.5776	-0.9155	0.6104	1.0681	-12.0544	0.4578	19.0735	1.3733	-0.9155	4.425	-0.6104	3.6621	-3.8147	3992.2344	1
4.2725	-9.1553	2.8992	10.376	0.4578	4.8828	-0.7629	0.3052	0.6104	-12.97	1.6785	19.0735	1.6785	-0.6104	5.0354	-1.2207	3.9673	-2.4414	3992.25	1
2.2888	-8.2397	4.1199	9.4604	0.3052	4.425	-1.9836	1.0681	0.6104	-14.0381	3.0518	18.0054	1.6785	-0.3052	3.9673	-1.5259	4.1199	-3.3569	3992.2656	1
0.3052	-7.9346	4.2725	10.0708	-0.1526	4.2725	-2.1362	1.2207	-0.3052	-13.2751	3.2043	17.0898	0.9155	-0.3052	4.7302	-2.1362	2.8992	-1.9836	3992.2812	1
2.4414	-8.2397	3.5095	8.8501	0.1526	4.1199	-2.594	-0.3052	1.0681	-12.6648	1.2207	16.9372	0.6104	-0.4578	4.1199	-2.8992	4.1199	-4.5776	3992.2969	1
3.2043	-8.3923	1.2207	10.6811	1.0681	3.8147	-1.5259	0.6104	0.7629	-14.4958	0.6104	19.8364	2.1362	-0.7629	5.188	-2.594	3.0518	-3.6621	3992.3125	1
3.0518	-7.9346	0	11.5967	-0.1526	3.2043	-1.3733	0.7629	0	-16.6321	3.3569	19.989	0.1526	-0.3052	4.8828	-2.2888	4.2725	-5.188	3992.3281	1
3.2043	-7.1716	-0.1526	9.4604	1.0681	3.0518	-1.5259	-0.4578	0.6104	-16.4795	2.4414	18.7683	0.6104	0	5.0354	-3.5095	5.0354	-5.0354	3992.3438	1
3.6621	-5.7983	-1.8311	9.3079	0.1526	4.1199	-3.0518	0.1526	1.5259	-16.6321	1.9836	18.4631	0.4578	-1.3733	5.4932	-3.2043	5.3406	-4.7302	3992.3594	1
4.1199	-5.6457	-1.2207	9.0027	0	3.6621	-1.3733	-0.1526	1.5259	-15.4114	1.3733	18.7683	0.1526	-0.1526	4.7302	-2.594	5.188	-3.2043	3992.375	1
3.5095	-7.019	0	10.2234	0.6104	3.6621	0	0.3052	0.7629	-16.3269	2.8992	19.3786	1.8311	-0.3052	5.0354	-1.9836	3.3569	-0.4578	3992.3906	1
2.2888	-7.6294	2.594	11.4441	0.7629	3.9673	0.4578	0.7629	-0.4578	-14.801	4.8828	19.0735	0.6104	-1.0681	7.9346	-1.5259	3.2043	0.4578	3992.4062	1
1.5259	-7.782	3.0518	8.8501	1.3733	3.2043	-0.4578	-0.1526	-1.9836	-16.1743	5.188	18.6157	3.5095	1.5259	3.6621	-4.7302	3.8147	-0.6104	3992.4219	1
3.2043	-8.5449	1.8311	9.9182	0.6104	2.1362	-1.2207	0	-0.1526	-14.0381	2.1362	18.4631	1.8311	-1.3733	5.0354	-3.9673	2.1362	-0.3052	3992.4375	1
5.3406	-9.3079	1.0681	10.376	0.1526	2.4414	0.4578	0.3052	2.2888	-15.1062	1.9836	18.3105	2.4414	-1.3733	5.0354	-2.7466	1.6785	2.1362	3992.4531	1
4.1199	-9.7656	1.2207	10.376	0.6104	2.594	-0.3052	0.3052	0.6104	-15.7165	2.594	18.4631	3.0518	-1.3733	4.5776	-3.0518	0.6104	1.9836	3992.4688	1
1.8311	-8.8501	0.4578	8.0872	-0.3052	1.9836	-1.3733	-0.3052	0.1526	-16.7847	2.4414	15.7165	0.7629	-1.0681	4.5776	-4.2725	4.2725	-2.7466	3992.4844	1
0.1526	-9.0027	-0.1526	8.6975	-0.7629	1.9836	-3.2043	0.3052	-0.7629	-16.6321	2.594	14.4958	0.3052	-1.6785	3.8147	-4.1199	5.3406	-3.5095	3992.5	1
1.8311	-9.4604	-1.2207	9.1553	1.2207	3.2043	-3.0518	-1.0681	-1.2207	-15.4114	1.0681	15.8691	2.2888	-1.9836	3.9673	-3.9673	8.6975	-7.782	3992.5156	1
3.3569	-9.1553	-1.3733	8.6975	1.9836	4.425	-2.1362	-0.9155	-1.0681	-15.7165	0.9155	17.395	3.8147	-2.2888	3.6621	-1.8311	12.207	-9.0027	3992.5312	1
2.1362	-7.019	-2.1362	7.782	2.2888	3.3569	-1.0681	-1.9836	-1.9836	-16.4795	2.8992	16.3269	2.4414	-1.8311	2.8992	-0.9155	11.2915	-6.7139	3992.5469	1
2.1362	-4.425	-2.8992	6.7139	1.6785	3.0518	-1.3733	-0.7629	-1.3733	-15.2588	3.0518	15.1062	1.2207	-1.2207	2.2888	0.3052	8.2397	-3.5095	3992.5625	1
2.7466	-3.3569	-2.8992	6.4087	1.0681	3.5095	-1.9836	-0.9155	-0.7629	-14.3433	2.1362	15.8691	0.3052	-0.7629	2.1362	0	6.7139	-0.6104	3992.5781	1
4.5776	-5.188	-1.6785	7.3242	2.8992	3.6621	-0.3052	-1.3733	-1.0681	-13.5803	2.594	17.0898	3.5095	-1.0681	1.6785	0.7629	5.4932	0.4578	3992.5938	1
2.8992	-6.7139	0	6.8664	1.6785	3.9673	0	-0.9155	-2.1362	-14.801	3.5095	16.4795	2.7466	-1.0681	2.1362	0.9155	2.2888	2.7466	3992.6094	1
1.5259	-8.0872	3.3569	6.2561	1.0681	3.6621	-0.3052	-1.0681	-3.0518	-15.564	5.7983	15.8691	2.1362	-1.9836	2.1362	1.0681	1.3733	4.1199	3992.625	1
-0.3052	-7.9346	2.8992	7.3242	2.2888	3.8147	-1.8311	-0.1526	-3.8147	-15.1062	5.9509	14.9536	2.7466	-1.3733	1.6785	1.0681	1.3733	3.9673	3992.6406	1
1.3733	-7.782	0.9155	9.4604	2.594	3.0518	-0.4578	-0.7629	-3.2043	-13.8855	4.1199	16.9372	2.8992	-0.9155	1.2207	1.2207	1.5259	5.188	3992.6562	1
2.8992	-9.1553	1.0681	10.9863	2.4414	4.425	0	-0.3052	-2.2888	-13.7329	3.0518	18.7683	3.8147	-0.6104	1.6785	1.6785	-1.0681	7.782	3992.6719	1
1.6785	-8.3923	0	9.4604	1.6785	2.8992	1.5259	-1.2207	-3.6621	-14.1907	4.1199	16.4795	2.594	-1.5259	1.9836	1.8311	-1.5259	6.8664	3992.6875	1
-0.6104	-7.1716	1.6785	8.3923	1.0681	3.5095	0.1526	0.3052	-3.6621	-12.97	3.6621	15.2588	2.2888	-1.2207	0.7629	3.2043	0	7.3242	3992.7031	1
-1.3733	-6.2561	3.2043	8.6975	0.9155	3.3569	0.6104	0.3052	-3.8147	-10.6811	3.3569	15.4114	1.3733	-0.9155	2.1362	2.594	0.4578	6.2561	3992.7188	1
0.7629	-6.5613	3.6621	9.613	0.7629	3.6621	2.4414	0.1526	-2.7466	-8.8501	2.594	16.4795	2.7466	-0.9155	1.5259	3.6621	1.5259	7.1716	3992.7344	1
1.0681	-7.1716	2.8992	9.0027	2.4414	2.8992	2.594	-0.9155	-3.3569	-11.1389	4.425	15.8691	2.8992	-0.1526	1.5259	2.7466	2.594	4.425	3992.75	1
0	-7.1716	2.2888	8.5449	2.1362	3.2043	0.6104	-0.3052	-4.425	-11.9018	5.3406	14.6484	2.594	-0.9155	0.9155	3.0518	4.2725	2.8992	3992.7656	1
0.7629	-7.3242	1.2207	8.0872	1.3733	2.8992	-0.4578	-1.0681	-2.8992	-12.97	5.4932	13.1225	1.0681	-0.7629	0.4578	1.9836	5.0354	2.1362	3992.7812	1
3.0518	-8.0872	0.1526	8.6975	2.4414	2.594	0.4578	-1.6785	-0.9155	-11.9018	2.4414	14.1907	2.1362	-1.0681	0.3052	2.4414	2.7466	3.2043	3992.7969	1
3.9673	-6.5613	-2.594	8.6975	1.6785	3.2043	1.2207	-1.5259	0.4578	-12.6648	0.1526	15.564	2.2888	-0.3052	0.1526	2.4414	2.4414	4.1199	3992.8125	1
1.8311	-4.425	-4.8828	8.5449	3.2043	2.4414	1.0681	-0.6104	0.3052	-15.4114	1.5259	14.6484	2.8992	-0.7629	0.6104	3.3569	1.3733	3.6621	3992.8281	1
-0.6104	-4.8828	-2.4414	7.782	2.1362	2.2888	-0.6104	-0.6104	-0.6104	-16.1743	3.2043	13.4277	1.2207	-0.6104	0.4578	2.1362	3.2043	3.5095	3992.8438	1
0.1526	-5.9509	-2.594	9.1553	1.6785	1.9836	-0.3052	-1.0681	-1.0681	-16.4795	3.9673	14.3433	1.2207	-1.2207	0.3052	1.9836	4.5776	1.2207	3992.8594	1
2.8992	-6.4087	-3.6621	10.0708	1.9836	2.4414	-0.7629	0.1526	-0.4578	-16.1743	3.9673	15.564	2.594	-2.2888	0.9155	2.594	7.019	-3.2043	3992.875	1
6.4087	-6.4087	-3.8147	11.2915	3.3569	3.5095	0.9155	0.3052	1.0681	-14.9536	4.1199	17.2424	2.8992	0.4578	2.1362	2.594	8.2397	-3.8147	3992.8906	1
3.0518	-6.7139	-4.425	10.6811	3.5095	1.5259	0.1526	-0.3052	-2.594	-16.1743	5.3406	16.0217	2.7466	0.1526	0.1526	1.8311	7.019	-3.0518	3992.9062	1
1.2207	-6.4087	-2.8992	9.0027	2.4414	2.2888	-2.4414	-0.1526	-1.3733	-15.4114	3.8147	13.8855	1.3733	-1.5259	0.7629	1.5259	5.188	0.9155	3992.9219	1
1.0681	-6.1035	-2.2888	9.7656	1.9836	3.2043	-1.0681	-1.5259	-0.6104	-14.4958	3.2043	14.3433	1.6785	-0.7629	0.3052	1.3733	4.8828	1.5259	3992.9375	1
2.2888	-7.3242	-2.1362	10.8337	3.9673	2.4414	0.6104	-1.2207	-0.3052	-13.7329	1.6785	16.0217	3.3569	-0.3052	0.6104	2.1362	4.1199	4.2725	3992.9531	1
0.1526	-7.782	-1.5259	9.613	3.3569	2.7466	1.0681	-1.6785	-1.9836	-15.2588	3.6621	14.0381	2.8992	-0.6104	0.6104	2.594	1.6785	3.8147	3992.9688	1
0.1526	-9.1553	0.6104	7.9346	2.1362	1.8311	-0.4578	-0.7629	-2.4414	-15.7165	5.0354	12.6648	1.3733	-0.9155	0.1526	2.1362	2.594	3.3569	3992.9844	1
-7.782	8.0872	-41.5039	47.6074	-3.0518	12.207	-13.4277	13.1225	-7.4768	-12.6648	-0.9155	27.4658	-7.1716	-1.8311	8.5449	9.3079	21.2097	-19.989	4404	1
-7.4768	7.019	-41.3513	46.5393	-5.7983	10.6811	-12.5122	12.0544	-8.0872	-13.4277	-0.6104	26.8554	-9.0027	2.1362	3.0518	8.2397	22.4304	-20.5993	4404.0156	1
-9.4604	5.6457	-41.0461	47.6074	-5.4932	10.0708	-13.1225	14.0381	-9.0027	-12.8174	-2.4414	27.008	-10.2234	-1.0681	8.5449	8.2397	21.5149	-21.8201	4404.0312	1
-9.1553	7.019	-41.5039	48.0651	-5.188	9.1553	-8.2397	12.0544	-6.8664	-16.0217	-0.6104	27.9236	-9.3079	0.6104	8.8501	7.6294	21.6675	-20.1416	4404.0469	1
-7.4768	6.4087	-43.1823	48.6755	-5.3406	7.1716	-5.188	13.2751	-7.782	-14.4958	-1.6785	28.3813	-7.9346	2.7466	5.3406	9.7656	20.9045	-19.5312	4404.0625	1
-7.1716	7.782	-42.4194	48.2177	-7.6294	8.0872	-5.6457	12.8174	-6.2561	-12.5122	-3.6621	28.8391	-10.5286	-1.2207	11.2915	8.0872	20.7519	-18.6157	4404.0781	1
-6.8664	9.9182	-43.7927	47.6074	-5.4932	9.1553	-6.2561	13.2751	-2.2888	-16.7847	-1.6785	27.6184	-9.7656	0.7629	12.5122	7.1716	23.4985	-20.5993	4404.0938	1
-6.7139	10.0708	-46.3867	45.3186	-5.6457	7.4768	-9.4604	11.7493	-5.4932	-13.4277	-5.9509	27.1606	-10.2234	1.2207	9.4604	3.6621	23.4985	-25.177	4404.1094	1
-6.1035	9.9182	-45.166	45.0134	-1.8311	8.6975	-10.2234	10.6811	-4.8828	-12.0544	-7.019	27.6184	-7.019	1.9836	7.9346	4.425	27.9236	-28.9917	4404.125	1
-3.9673	7.9346	-43.7927	46.997	-4.8828	12.0544	-10.2234	9.613	-4.5776	-13.8855	-3.6621	29.2969	-8.3923	-0.4578	10.6811	4.7302	28.5339	-27.9236	4404.1406	1
-5.7983	8.8501	-43.3349	48.5229	-4.8828	13.7329	-11.4441	9.613	-5.9509	-12.8174	-2.7466	29.7546	-8.3923	-0.3052	12.0544	3.6621	28.5339	-26.3977	4404.1562	1
-6.7139	8.3923	-40.5883	45.6237	-7.019	14.6484	-13.4277	9.3079	-4.8828	-12.3596	-3.9673	27.9236	-9.4604	-3.3569	13.1225	3.2043	27.6184	-25.7873	4404.1719	1
-7.6294	7.782	-41.0461	45.9289	-6.1035	13.7329	-12.207	8.6975	-5.188	-12.0544	-4.7302	27.008	-9.7656	-0.7629	11.7493	2.8992	26.2451	-24.7192	4404.1875	1
-6.4087	6.7139	-40.2832	47.4548	-5.0354	13.8855	-10.9863	9.1553	-3.8147	-11.2915	-5.7983	28.3813	-7.4768	-0.6104	11.9018	3.2043	23.8037	-20.7519	4404.2031	1
-5.6457	5.6457	-39.0625	47.1496	-4.1199	12.8174	-8.8501	8.2397	-3.6621	-11.1389	-5.7983	28.6865	-5.7983	-0.7629	10.9863	3.6621	23.0408	-21.2097	4404.2188	1
-7.782	7.019	-40.1306	45.6237	-9.0027	12.6648	-11.5967	9.1553	-5.4932	-10.5286	-5.7983	26.5503	-11.7493	3.5095	6.1035	3.3569	22.2778	-20.7519	4404.2344	1
-8.0872	8.5449	-38.7573	44.5556	-2.594	11.9018	-11.7493	9.0027	-5.4932	-8.6975	-5.6457	26.0925	-6.5613	-1.3733	11.5967	2.8992	22.583	-20.2942	4404.25	1
-6.4087	9.9182	-41.1987	45.4712	-4.1199	9.7656	-9.613	9.0027	-2.8992	-10.0708	-7.019	27.771	-6.2561	-3.2043	11.4441	3.0518	21.3623	-21.0571	4404.2656	1
-3.3569	11.4441	-42.4194	44.0979	-3.9673	9.1553	-6.7139	8.2397	-2.8992	-7.4768	-8.0872	28.2287	-6.8664	-3.5095	12.6648	4.425	21.2097	-19.6838	4404.2812	1
-3.0518	10.9863	-41.6565	43.9453	-3.3569	9.613	-7.019	8.0872	-2.7466	-8.6975	-7.1716	28.8391	-6.2561	-1.8311	11.4441	3.9673	22.8882	-18.7683	4404.2969	1
-6.5613	10.0708	-41.5039	43.7927	-6.7139	9.1553	-8.3923	8.3923	-4.425	-10.6811	-6.2561	27.1606	-9.0027	-2.8992	11.1389	3.2043	21.0571	-19.2261	4404.3125	1
-7.6294	8.6975	-38.9099	43.0298	-7.3242	7.9346	-6.4087	9.4604	-4.7302	-10.8337	-5.4932	26.2451	-9.0027	-1.9836	10.9863	3.6621	20.1416	-17.2424	4404.3281	1
-7.019	7.3242	-38.2995	44.8608	-7.9346	8.0872	-3.6621	9.4604	-4.5776	-11.9018	-4.425	27.771	-9.0027	1.3733	9.0027	4.5776	18.9209	-18.4631	4404.3438	1
-3.8147	4.7302	-37.8418	45.6237	-7.6294	8.2397	-4.2725	9.7656	-2.1362	-11.7493	-6.1035	28.6865	-8.6975	-0.9155	11.2915	4.425	19.6838	-19.0735	4404.3594	1
